File: Exploratory-Data-Science/Model Testing of Backsheet Color and FTIR Data/FTIR/DampHeat-FTIR/UL DH 500hr PET 3.080-2.SPA.dpt
3999.71,0.00202
3988.13,0.00139
3976.56,0.00081
3964.99,0.00039
3953.42,0.00004
3941.85,-0.00019
3930.28,-0.00026
3918.71,-0.00032
3907.14,-0.00006
3895.57,-0.00006
3884,-0.00028
3872.42,-0.00045
3860.85,-0.00031
3849.28,-0.00014
3837.71,-0.00020
3826.14,-0.00038
3814.57,-0.00030
3803,-0.00017
3791.43,-0.00009
3779.86,-0.00019
3768.29,0.00004
3756.72,0.00021
3745.14,-0.00002
3733.57,-0.00083
3722,-0.00068
3710.43,-0.00011
3698.86,0.00000
3687.29,0.00078
3675.72,0.00046
3664.15,0.00047
3652.58,0.00026
3641.01,0.00029
3629.43,-0.00054
3617.86,-0.00022
3606.29,-0.00017
3594.72,-0.00023
3583.15,0.00032
3571.58,0.00042
3560.01,0.00047
3548.44,0.00060
3536.87,0.00030
3525.3,0.00005
3513.72,-0.00019
3502.15,-0.00030
3490.58,-0.00027
3479.01,-0.00013
3467.44,-0.00046
3455.87,-0.00024
3444.3,0.00033
3432.73,0.00259
3421.16,0.00108
3409.59,-0.00019
3398.01,0.00009
3386.44,0.00006
3374.87,-0.00011
3363.3,-0.00023
3351.73,-0.00015
3340.16,0.00015
3328.59,0.00020
3317.02,-0.00009
3305.45,-0.00003
3293.88,-0.00004
3282.3,0.00002
3270.73,0.00012
3259.16,-0.00021
3247.59,-0.00033
3236.02,-0.00007
3224.45,-0.00001
3212.88,-0.00014
3201.31,-0.00014
3189.74,0.00009
3178.17,0.00005
3166.59,-0.00011
3155.02,-0.00048
3143.45,-0.00049
3131.88,-0.00011
3120.31,-0.00005
3108.74,0.00041
3097.17,0.00032
3085.6,0.00045
3074.03,0.00090
3062.46,0.00117
3050.88,0.00197
3039.31,-0.00022
3027.74,0.00005
3016.17,0.00246
3004.6,0.00199
2993.03,0.00216
2981.46,0.00528
2969.89,0.01480
2958.32,0.01139
2946.75,0.00624
2935.17,0.00468
2923.6,0.00831
2912.03,0.00940
2900.46,0.00676
2888.89,0.00372
2877.32,0.00238
2865.75,0.00297
2854.18,0.00558
2842.61,0.00236
2831.04,0.00015
2819.46,0.00005
2807.89,0.00038
2796.32,0.00026
2784.75,-0.00004
2773.18,-0.00002
2761.61,0.00013
2750.04,0.00026
2738.47,0.00016
2726.9,-0.00011
2715.33,-0.00007
2703.75,0.00007
2692.18,-0.00012
2680.61,-0.00021
2669.04,-0.00015
2657.47,-0.00002
2645.9,-0.00002
2634.33,0.00022
2622.76,0.00001
2611.19,0.00004
2599.62,0.00021
2588.04,0.00089
2576.47,0.00142
2564.9,0.00200
2553.33,0.00284
2541.76,0.00374
2530.19,0.00478
2518.62,0.00562
2507.05,0.00674
2495.48,0.00803
2483.91,0.00905
2472.33,0.01035
2460.76,0.01189
2449.19,0.01366
2437.62,0.01589
2426.05,0.01856
2414.48,0.02152
2402.91,0.02461
2391.34,0.02772
2379.77,0.02552
2368.2,0.00437
2356.63,0.00184
2345.05,0.00999
2333.48,0.00566
2321.91,0.01005
2310.34,0.01796
2298.77,0.02095
2287.2,0.02107
2275.63,0.01850
2264.06,0.01640
2252.49,0.01417
2240.92,0.01183
2229.34,0.01009
2217.77,0.00819
2206.2,0.00647
2194.63,0.00444
2183.06,0.00264
2171.49,0.00267
2159.92,0.00000
2148.35,0.00523
2136.78,0.00788
2125.21,0.01067
2113.63,0.01162
2102.06,0.01098
2090.49,0.01044
2078.92,0.00879
2067.35,0.00712
2055.78,0.00550
2044.21,0.00202
2032.64,-0.00002
2021.07,0.00000
2009.5,0.00036
1997.92,0.00166
1986.35,0.00146
1974.78,0.00079
1963.21,0.00545
1951.64,0.00475
1940.07,0.00252
1928.5,0.00124
1916.93,0.00054
1905.36,0.00026
1893.79,-0.00003
1882.21,-0.00019
1870.64,-0.00018
1859.07,-0.00003
1847.5,0.00057
1835.93,0.00155
1824.36,0.00184
1812.79,0.00129
1801.22,0.00059
1789.65,0.00004
1778.08,-0.00004
1766.5,0.00127
1754.93,0.00735
1743.36,0.05127
1731.79,0.19770
1720.22,0.39006
1708.65,0.44468
1697.08,0.18798
1685.51,0.10215
1673.94,0.06375
1662.37,0.03421
1650.79,0.01994
1639.22,0.01213
1627.65,0.00688
1616.08,0.00634
1604.51,0.00272
1592.94,0.00000
1581.37,0.00882
1569.8,0.00216
1558.23,-0.00050
1546.66,0.00012
1535.08,-0.00020
1523.51,0.00208
1511.94,0.00772
1500.37,0.01477
1488.8,0.00018
1477.23,0.01111
1465.66,0.01462
1454.09,0.01600
1442.52,0.00998
1430.95,0.00133
1419.37,0.00952
1407.8,0.09132
1396.23,0.01789
1384.66,0.01820
1373.09,0.01222
1361.52,0.00148
1349.95,0.01418
1338.38,0.14785
1326.81,0.00316
1315.24,0.00548
1303.66,0.02536
1292.09,0.07319
1280.52,0.13242
1268.95,0.21858
1257.38,0.29286
1245.81,0.37838
1234.24,0.37035
1222.67,0.29624
1211.1,0.19061
1199.53,0.10596
1187.95,0.04423
1176.38,0.02622
1164.81,0.00113
1153.24,0.00522
1141.67,0.04203
1130.1,0.17480
1118.53,0.27076
1106.96,0.28988
1095.39,0.33880
1083.82,0.28864
1072.25,0.20378
1060.67,0.13429
1049.1,0.10377
1037.53,0.07743
1025.96,0.07430
1014.39,0.20560
1002.82,0.09021
991.248,0.05819
979.677,0.05107
968.106,0.09192
956.535,0.05136
944.964,0.03118
933.393,0.02002
921.822,0.01241
910.251,0.01099
898.68,0.02046
887.109,0.01758
875.538,0.07074
863.967,0.03739
852.396,0.04709
840.825,0.04936
829.254,0.02589
817.683,0.01699
806.112,0.01593
794.541,0.02739
782.97,0.01419
771.399,0.00642
759.828,0.00176
748.257,0.00000
736.686,0.05930
725.115,0.38420
713.544,0.21811
701.973,0.09677
690.402,0.04313
678.831,0.02740
667.26,0.00915
655.689,0.00448
649.904,0.00000