File: Exploratory-Data-Science/Model Testing of Backsheet Color and FTIR Data/FTIR/DampHeat-FTIR/UL DH 1500hr PET 3.061-1.SPA.dpt
3999.71,0.00100
3988.13,0.00058
3976.56,0.00038
3964.99,0.00035
3953.42,0.00010
3941.85,-0.00008
3930.28,-0.00014
3918.71,-0.00012
3907.14,-0.00010
3895.57,-0.00001
3884,-0.00011
3872.42,-0.00011
3860.85,-0.00007
3849.28,-0.00001
3837.71,0.00020
3826.14,-0.00008
3814.57,0.00008
3803,0.00008
3791.43,0.00007
3779.86,-0.00010
3768.29,-0.00014
3756.72,-0.00025
3745.14,0.00021
3733.57,0.00021
3722,0.00008
3710.43,0.00006
3698.86,0.00014
3687.29,0.00006
3675.72,0.00018
3664.15,-0.00021
3652.58,-0.00001
3641.01,-0.00000
3629.43,0.00031
3617.86,0.00009
3606.29,-0.00010
3594.72,-0.00003
3583.15,-0.00002
3571.58,-0.00023
3560.01,-0.00003
3548.44,0.00005
3536.87,-0.00000
3525.3,0.00004
3513.72,-0.00001
3502.15,-0.00005
3490.58,-0.00004
3479.01,0.00009
3467.44,0.00003
3455.87,-0.00006
3444.3,-0.00007
3432.73,0.00015
3421.16,-0.00012
3409.59,-0.00017
3398.01,0.00027
3386.44,0.00025
3374.87,0.00001
3363.3,0.00007
3351.73,0.00055
3340.16,0.00159
3328.59,0.00359
3317.02,0.00746
3305.45,0.01502
3293.88,0.02585
3282.3,0.02429
3270.73,0.01468
3259.16,0.00761
3247.59,0.00427
3236.02,0.00245
3224.45,0.00172
3212.88,0.00151
3201.31,0.00135
3189.74,0.00103
3178.17,0.00037
3166.59,0.00003
3155.02,-0.00004
3143.45,0.00009
3131.88,0.00017
3120.31,0.00038
3108.74,0.00100
3097.17,0.00196
3085.6,0.00284
3074.03,0.00217
3062.46,0.00102
3050.88,0.00053
3039.31,0.00009
3027.74,0.00002
3016.17,0.00038
3004.6,0.00008
2993.03,0.00010
2981.46,0.00139
2969.89,0.00507
2958.32,0.00931
2946.75,0.01239
2935.17,0.02073
2923.6,0.04000
2912.03,0.03334
2900.46,0.01470
2888.89,0.00854
2877.32,0.00660
2865.75,0.00799
2854.18,0.02329
2842.61,0.01190
2831.04,0.00252
2819.46,0.00087
2807.89,0.00030
2796.32,0.00001
2784.75,-0.00004
2773.18,-0.00008
2761.61,0.00000
2750.04,0.00000
2738.47,-0.00001
2726.9,-0.00003
2715.33,-0.00002
2703.75,0.00000
2692.18,0.00004
2680.61,-0.00005
2669.04,0.00003
2657.47,0.00007
2645.9,0.00009
2634.33,0.00013
2622.76,0.00002
2611.19,0.00016
2599.62,0.00009
2588.04,0.00006
2576.47,0.00002
2564.9,-0.00000
2553.33,0.00006
2541.76,0.00008
2530.19,0.00015
2518.62,0.00001
2507.05,0.00004
2495.48,0.00001
2483.91,-0.00001
2472.33,-0.00002
2460.76,-0.00000
2449.19,0.00010
2437.62,0.00008
2426.05,0.00000
2414.48,0.00021
2402.91,0.00019
2391.34,0.00049
2379.77,0.00187
2368.2,0.00775
2356.63,0.00838
2345.05,0.00613
2333.48,0.00696
2321.91,0.00544
2310.34,0.00299
2298.77,0.00228
2287.2,0.00199
2275.63,0.00208
2264.06,0.00204
2252.49,0.00193
2240.92,0.00177
2229.34,0.00164
2217.77,0.00167
2206.2,0.00172
2194.63,0.00140
2183.06,0.00093
2171.49,0.00112
2159.92,0.00000
2148.35,0.00176
2136.78,0.00263
2125.21,0.00379
2113.63,0.00406
2102.06,0.00389
2090.49,0.00374
2078.92,0.00343
2067.35,0.00279
2055.78,0.00261
2044.21,0.00103
2032.64,0.00008
2021.07,0.00001
2009.5,0.00005
1997.92,0.00071
1986.35,0.00069
1974.78,-0.00011
1963.21,0.00084
1951.64,0.00115
1940.07,0.00073
1928.5,0.00049
1916.93,0.00029
1905.36,0.00012
1893.79,0.00006
1882.21,-0.00001
1870.64,0.00004
1859.07,0.00000
1847.5,0.00014
1835.93,0.00028
1824.36,0.00039
1812.79,0.00023
1801.22,0.00016
1789.65,0.00010
1778.08,0.00001
1766.5,-0.00002
1754.93,0.00149
1743.36,0.01257
1731.79,0.03702
1720.22,0.05579
1708.65,0.07331
1697.08,0.04538
1685.51,0.02806
1673.94,0.02043
1662.37,0.01526
1650.79,0.02556
1639.22,0.03028
1627.65,0.01064
1616.08,0.00833
1604.51,0.00590
1592.94,0.00365
1581.37,0.00627
1569.8,0.00907
1558.23,0.01541
1546.66,0.01331
1535.08,0.00582
1523.51,0.00273
1511.94,0.00251
1500.37,0.00366
1488.8,0.00000
1477.23,0.00282
1465.66,0.00795
1454.09,0.00601
1442.52,0.00513
1430.95,0.00406
1419.37,0.00421
1407.8,0.02086
1396.23,0.00669
1384.66,0.00698
1373.09,0.00548
1361.52,0.00268
1349.95,0.00261
1338.38,0.03146
1326.81,0.00078
1315.24,0.00087
1303.66,0.00511
1292.09,0.01437
1280.52,0.02547
1268.95,0.04091
1257.38,0.05385
1245.81,0.07522
1234.24,0.09403
1222.67,0.08429
1211.1,0.06404
1199.53,0.04416
1187.95,0.02280
1176.38,0.01383
1164.81,0.00156
1153.24,0.00015
1141.67,0.00806
1130.1,0.03766
1118.53,0.06231
1106.96,0.06869
1095.39,0.08542
1083.82,0.08864
1072.25,0.07839
1060.67,0.06089
1049.1,0.04811
1037.53,0.03703
1025.96,0.02320
1014.39,0.07605
1002.82,0.04993
991.248,0.03555
979.677,0.02850
968.106,0.04194
956.535,0.03373
944.964,0.02655
933.393,0.02140
921.822,0.01737
910.251,0.01448
898.68,0.01547
887.109,0.01296
875.538,0.02593
863.967,0.01905
852.396,0.02080
840.825,0.02641
829.254,0.01909
817.683,0.01479
806.112,0.01335
794.541,0.01599
782.97,0.01221
771.399,0.00769
759.828,0.00394
748.257,0.00061
736.686,0.02251
725.115,0.12424
713.544,0.07385
701.973,0.03913
690.402,0.02077
678.831,0.01408
667.26,0.00838
655.689,0.00251
649.904,0.00000