File: Exploratory-Data-Science/Model Testing of Backsheet Color and FTIR Data/FTIR/DampHeat-FTIR/UL DH 0hr PET 3.030-1.SPA.dpt
3999.71,0.00243
3988.13,0.00167
3976.56,0.00106
3964.99,0.00063
3953.42,0.00011
3941.85,-0.00013
3930.28,-0.00022
3918.71,-0.00017
3907.14,0.00001
3895.57,0.00009
3884,-0.00011
3872.42,0.00005
3860.85,0.00030
3849.28,0.00037
3837.71,-0.00014
3826.14,-0.00018
3814.57,-0.00036
3803,-0.00010
3791.43,0.00001
3779.86,-0.00009
3768.29,0.00012
3756.72,0.00048
3745.14,0.00000
3733.57,-0.00054
3722,-0.00052
3710.43,-0.00047
3698.86,-0.00018
3687.29,0.00039
3675.72,0.00022
3664.15,0.00020
3652.58,0.00020
3641.01,0.00031
3629.43,-0.00031
3617.86,-0.00011
3606.29,-0.00001
3594.72,0.00000
3583.15,0.00050
3571.58,0.00060
3560.01,0.00064
3548.44,0.00062
3536.87,0.00036
3525.3,-0.00008
3513.72,-0.00036
3502.15,-0.00028
3490.58,-0.00007
3479.01,0.00005
3467.44,-0.00043
3455.87,0.00000
3444.3,0.00101
3432.73,0.00400
3421.16,0.00189
3409.59,0.00003
3398.01,-0.00003
3386.44,-0.00001
3374.87,-0.00025
3363.3,-0.00048
3351.73,-0.00033
3340.16,0.00019
3328.59,0.00023
3317.02,-0.00024
3305.45,-0.00021
3293.88,-0.00006
3282.3,-0.00014
3270.73,-0.00011
3259.16,-0.00039
3247.59,-0.00033
3236.02,-0.00009
3224.45,-0.00002
3212.88,-0.00025
3201.31,-0.00035
3189.74,-0.00015
3178.17,-0.00013
3166.59,-0.00017
3155.02,-0.00073
3143.45,-0.00068
3131.88,-0.00016
3120.31,-0.00013
3108.74,0.00055
3097.17,0.00048
3085.6,0.00055
3074.03,0.00118
3062.46,0.00167
3050.88,0.00264
3039.31,-0.00022
3027.74,0.00000
3016.17,0.00332
3004.6,0.00310
2993.03,0.00371
2981.46,0.00844
2969.89,0.02053
2958.32,0.01582
2946.75,0.00841
2935.17,0.00616
2923.6,0.01228
2912.03,0.01561
2900.46,0.00931
2888.89,0.00531
2877.32,0.00338
2865.75,0.00388
2854.18,0.00838
2842.61,0.00336
2831.04,0.00024
2819.46,0.00009
2807.89,0.00044
2796.32,0.00031
2784.75,-0.00013
2773.18,-0.00016
2761.61,0.00002
2750.04,0.00011
2738.47,0.00002
2726.9,-0.00024
2715.33,-0.00020
2703.75,-0.00007
2692.18,-0.00020
2680.61,-0.00036
2669.04,-0.00022
2657.47,0.00001
2645.9,-0.00003
2634.33,0.00026
2622.76,-0.00005
2611.19,-0.00013
2599.62,-0.00002
2588.04,0.00002
2576.47,-0.00006
2564.9,-0.00005
2553.33,-0.00003
2541.76,0.00031
2530.19,0.00063
2518.62,0.00070
2507.05,0.00115
2495.48,0.00174
2483.91,0.00215
2472.33,0.00294
2460.76,0.00406
2449.19,0.00527
2437.62,0.00708
2426.05,0.00945
2414.48,0.01210
2402.91,0.01512
2391.34,0.01819
2379.77,0.01737
2368.2,0.00264
2356.63,0.00139
2345.05,0.00716
2333.48,0.00361
2321.91,0.00694
2310.34,0.01201
2298.77,0.01436
2287.2,0.01445
2275.63,0.01238
2264.06,0.01081
2252.49,0.00921
2240.92,0.00747
2229.34,0.00641
2217.77,0.00529
2206.2,0.00410
2194.63,0.00311
2183.06,0.00191
2171.49,0.00256
2159.92,0.00000
2148.35,0.00561
2136.78,0.00851
2125.21,0.01181
2113.63,0.01269
2102.06,0.01185
2090.49,0.01132
2078.92,0.00959
2067.35,0.00750
2055.78,0.00609
2044.21,0.00207
2032.64,0.00005
2021.07,0.00020
2009.5,0.00049
1997.92,0.00200
1986.35,0.00199
1974.78,0.00095
1963.21,0.00632
1951.64,0.00525
1940.07,0.00257
1928.5,0.00116
1916.93,0.00038
1905.36,-0.00007
1893.79,-0.00020
1882.21,-0.00033
1870.64,-0.00032
1859.07,-0.00009
1847.5,0.00062
1835.93,0.00185
1824.36,0.00198
1812.79,0.00146
1801.22,0.00059
1789.65,-0.00010
1778.08,-0.00010
1766.5,0.00174
1754.93,0.00962
1743.36,0.06387
1731.79,0.24295
1720.22,0.48945
1708.65,0.51780
1697.08,0.20419
1685.51,0.11141
1673.94,0.06869
1662.37,0.03601
1650.79,0.01991
1639.22,0.01169
1627.65,0.00647
1616.08,0.00676
1604.51,0.00286
1592.94,0.00000
1581.37,0.01079
1569.8,0.00291
1558.23,-0.00064
1546.66,-0.00003
1535.08,-0.00016
1523.51,0.00240
1511.94,0.00822
1500.37,0.01702
1488.8,0.00018
1477.23,0.01342
1465.66,0.01734
1454.09,0.01949
1442.52,0.01226
1430.95,0.00167
1419.37,0.01072
1407.8,0.10793
1396.23,0.02092
1384.66,0.02070
1373.09,0.01430
1361.52,0.00167
1349.95,0.01632
1338.38,0.16553
1326.81,0.00334
1315.24,0.00653
1303.66,0.03026
1292.09,0.08723
1280.52,0.15594
1268.95,0.25746
1257.38,0.35011
1245.81,0.44790
1234.24,0.41255
1222.67,0.31849
1211.1,0.19931
1199.53,0.10836
1187.95,0.04352
1176.38,0.02748
1164.81,0.00075
1153.24,0.00659
1141.67,0.04937
1130.1,0.19968
1118.53,0.30972
1106.96,0.33195
1095.39,0.39076
1083.82,0.31818
1072.25,0.21325
1060.67,0.13716
1049.1,0.10867
1037.53,0.08072
1025.96,0.08099
1014.39,0.22001
1002.82,0.08925
991.248,0.05641
979.677,0.05027
968.106,0.09299
956.535,0.04853
944.964,0.02723
933.393,0.01570
921.822,0.00811
910.251,0.00749
898.68,0.01864
887.109,0.01640
875.538,0.07766
863.967,0.03907
852.396,0.04926
840.825,0.04998
829.254,0.02478
817.683,0.01571
806.112,0.01498
794.541,0.02796
782.97,0.01371
771.399,0.00599
759.828,0.00172
748.257,0.00000
736.686,0.06430
725.115,0.41834
713.544,0.24122
701.973,0.10592
690.402,0.04642
678.831,0.02911
667.26,0.01063
655.689,0.00355
649.904,0.00000