File: Exploratory-Data-Science/Model Testing of Backsheet Color and FTIR Data/FTIR/DampHeat-FTIR/UL DH 500hr PET 3.080-1.SPA.dpt
3999.71,0.00283
3988.13,0.00196
3976.56,0.00113
3964.99,0.00067
3953.42,0.00011
3941.85,-0.00026
3930.28,-0.00033
3918.71,-0.00036
3907.14,-0.00017
3895.57,-0.00010
3884,-0.00040
3872.42,-0.00050
3860.85,-0.00044
3849.28,-0.00017
3837.71,-0.00016
3826.14,-0.00040
3814.57,-0.00029
3803,-0.00012
3791.43,-0.00011
3779.86,-0.00037
3768.29,-0.00019
3756.72,0.00007
3745.14,-0.00004
3733.57,-0.00043
3722,-0.00060
3710.43,-0.00055
3698.86,-0.00027
3687.29,0.00063
3675.72,-0.00001
3664.15,-0.00022
3652.58,-0.00012
3641.01,0.00020
3629.43,-0.00019
3617.86,-0.00022
3606.29,-0.00020
3594.72,-0.00007
3583.15,0.00052
3571.58,0.00067
3560.01,0.00088
3548.44,0.00099
3536.87,0.00060
3525.3,0.00014
3513.72,-0.00028
3502.15,-0.00044
3490.58,-0.00035
3479.01,-0.00010
3467.44,-0.00044
3455.87,0.00000
3444.3,0.00132
3432.73,0.00541
3421.16,0.00242
3409.59,0.00016
3398.01,-0.00033
3386.44,-0.00021
3374.87,-0.00017
3363.3,-0.00046
3351.73,-0.00030
3340.16,0.00027
3328.59,0.00025
3317.02,-0.00033
3305.45,-0.00026
3293.88,-0.00021
3282.3,-0.00020
3270.73,-0.00006
3259.16,-0.00048
3247.59,-0.00049
3236.02,-0.00015
3224.45,-0.00002
3212.88,-0.00031
3201.31,-0.00040
3189.74,-0.00025
3178.17,-0.00016
3166.59,-0.00008
3155.02,-0.00061
3143.45,-0.00059
3131.88,0.00002
3120.31,-0.00009
3108.74,0.00066
3097.17,0.00047
3085.6,0.00069
3074.03,0.00153
3062.46,0.00204
3050.88,0.00319
3039.31,-0.00037
3027.74,0.00000
3016.17,0.00444
3004.6,0.00395
2993.03,0.00468
2981.46,0.01052
2969.89,0.02600
2958.32,0.01869
2946.75,0.00976
2935.17,0.00567
2923.6,0.00776
2912.03,0.01201
2900.46,0.00931
2888.89,0.00529
2877.32,0.00358
2865.75,0.00411
2854.18,0.00600
2842.61,0.00196
2831.04,0.00002
2819.46,0.00013
2807.89,0.00072
2796.32,0.00046
2784.75,0.00001
2773.18,-0.00005
2761.61,0.00015
2750.04,0.00034
2738.47,0.00024
2726.9,-0.00016
2715.33,-0.00003
2703.75,0.00009
2692.18,-0.00013
2680.61,-0.00038
2669.04,-0.00029
2657.47,-0.00013
2645.9,-0.00005
2634.33,0.00031
2622.76,-0.00006
2611.19,-0.00012
2599.62,-0.00004
2588.04,0.00004
2576.47,-0.00017
2564.9,-0.00025
2553.33,-0.00006
2541.76,0.00005
2530.19,0.00024
2518.62,0.00001
2507.05,0.00006
2495.48,0.00025
2483.91,0.00001
2472.33,0.00003
2460.76,0.00041
2449.19,0.00106
2437.62,0.00227
2426.05,0.00407
2414.48,0.00626
2402.91,0.00869
2391.34,0.01100
2379.77,0.01078
2368.2,0.00198
2356.63,0.00063
2345.05,0.00369
2333.48,0.00159
2321.91,0.00302
2310.34,0.00599
2298.77,0.00759
2287.2,0.00801
2275.63,0.00658
2264.06,0.00548
2252.49,0.00423
2240.92,0.00285
2229.34,0.00207
2217.77,0.00154
2206.2,0.00116
2194.63,0.00044
2183.06,0.00000
2171.49,0.00134
2159.92,0.00000
2148.35,0.00556
2136.78,0.00876
2125.21,0.01195
2113.63,0.01317
2102.06,0.01247
2090.49,0.01171
2078.92,0.00975
2067.35,0.00773
2055.78,0.00580
2044.21,0.00194
2032.64,0.00000
2021.07,0.00012
2009.5,0.00039
1997.92,0.00174
1986.35,0.00169
1974.78,0.00103
1963.21,0.00719
1951.64,0.00617
1940.07,0.00316
1928.5,0.00151
1916.93,0.00055
1905.36,0.00016
1893.79,-0.00014
1882.21,-0.00029
1870.64,-0.00021
1859.07,0.00000
1847.5,0.00079
1835.93,0.00221
1824.36,0.00259
1812.79,0.00186
1801.22,0.00090
1789.65,0.00012
1778.08,0.00011
1766.5,0.00216
1754.93,0.01100
1743.36,0.07304
1731.79,0.27986
1720.22,0.58947
1708.65,0.59594
1697.08,0.22589
1685.51,0.12261
1673.94,0.07473
1662.37,0.03812
1650.79,0.02087
1639.22,0.01247
1627.65,0.00734
1616.08,0.00828
1604.51,0.00340
1592.94,0.00000
1581.37,0.01251
1569.8,0.00344
1558.23,0.00004
1546.66,0.00034
1535.08,-0.00009
1523.51,0.00293
1511.94,0.01015
1500.37,0.01918
1488.8,0.00029
1477.23,0.01533
1465.66,0.01965
1454.09,0.02208
1442.52,0.01401
1430.95,0.00193
1419.37,0.01294
1407.8,0.12297
1396.23,0.02395
1384.66,0.02403
1373.09,0.01663
1361.52,0.00198
1349.95,0.01921
1338.38,0.19240
1326.81,0.00418
1315.24,0.00814
1303.66,0.03491
1292.09,0.09849
1280.52,0.17761
1268.95,0.29626
1257.38,0.40913
1245.81,0.52346
1234.24,0.45588
1222.67,0.34450
1211.1,0.21369
1199.53,0.11440
1187.95,0.04563
1176.38,0.02926
1164.81,0.00084
1153.24,0.00784
1141.67,0.05724
1130.1,0.23241
1118.53,0.35619
1106.96,0.38036
1095.39,0.44012
1083.82,0.34357
1072.25,0.22190
1060.67,0.14077
1049.1,0.11112
1037.53,0.08274
1025.96,0.08913
1014.39,0.23096
1002.82,0.08850
991.248,0.05508
979.677,0.04999
968.106,0.09593
956.535,0.04627
944.964,0.02379
933.393,0.01197
921.822,0.00429
910.251,0.00430
898.68,0.01683
887.109,0.01455
875.538,0.08326
863.967,0.04030
852.396,0.05174
840.825,0.05157
829.254,0.02414
817.683,0.01458
806.112,0.01445
794.541,0.02901
782.97,0.01348
771.399,0.00550
759.828,0.00147
748.257,0.00000
736.686,0.06801
725.115,0.45185
713.544,0.26741
701.973,0.11641
690.402,0.05122
678.831,0.03289
667.26,0.01430
655.689,0.00525
649.904,0.00000