File: Exploratory-Data-Science/Model Testing of Backsheet Color and FTIR Data/FTIR/DampHeat-FTIR/UL DH 1500hr PET 3.078-2.SPA.dpt
3999.71,0.00194
3988.13,0.00130
3976.56,0.00082
3964.99,0.00055
3953.42,0.00008
3941.85,-0.00020
3930.28,-0.00032
3918.71,-0.00027
3907.14,-0.00023
3895.57,-0.00006
3884,-0.00020
3872.42,-0.00035
3860.85,-0.00021
3849.28,-0.00019
3837.71,0.00005
3826.14,-0.00030
3814.57,-0.00022
3803,0.00004
3791.43,0.00000
3779.86,-0.00018
3768.29,-0.00012
3756.72,-0.00007
3745.14,0.00022
3733.57,-0.00009
3722,-0.00033
3710.43,-0.00032
3698.86,-0.00025
3687.29,0.00023
3675.72,-0.00004
3664.15,-0.00033
3652.58,-0.00018
3641.01,-0.00011
3629.43,0.00002
3617.86,-0.00023
3606.29,-0.00043
3594.72,-0.00033
3583.15,-0.00008
3571.58,-0.00007
3560.01,0.00023
3548.44,0.00037
3536.87,0.00019
3525.3,0.00008
3513.72,-0.00008
3502.15,-0.00018
3490.58,-0.00021
3479.01,-0.00002
3467.44,-0.00044
3455.87,-0.00025
3444.3,0.00010
3432.73,0.00204
3421.16,0.00069
3409.59,-0.00039
3398.01,-0.00024
3386.44,-0.00015
3374.87,-0.00006
3363.3,-0.00015
3351.73,0.00032
3340.16,0.00123
3328.59,0.00288
3317.02,0.00635
3305.45,0.01408
3293.88,0.02508
3282.3,0.02331
3270.73,0.01314
3259.16,0.00575
3247.59,0.00226
3236.02,0.00068
3224.45,0.00008
3212.88,-0.00006
3201.31,0.00020
3189.74,0.00026
3178.17,-0.00004
3166.59,-0.00001
3155.02,-0.00044
3143.45,-0.00047
3131.88,-0.00019
3120.31,0.00001
3108.74,0.00101
3097.17,0.00213
3085.6,0.00316
3074.03,0.00290
3062.46,0.00190
3050.88,0.00215
3039.31,-0.00002
3027.74,0.00014
3016.17,0.00229
3004.6,0.00153
2993.03,0.00181
2981.46,0.00554
2969.89,0.01601
2958.32,0.01684
2946.75,0.01589
2935.17,0.02328
2923.6,0.04528
2912.03,0.04153
2900.46,0.01947
2888.89,0.01107
2877.32,0.00802
2865.75,0.00948
2854.18,0.02659
2842.61,0.01265
2831.04,0.00171
2819.46,-0.00010
2807.89,-0.00006
2796.32,-0.00017
2784.75,-0.00034
2773.18,-0.00025
2761.61,-0.00009
2750.04,0.00009
2738.47,-0.00000
2726.9,-0.00017
2715.33,-0.00014
2703.75,-0.00003
2692.18,-0.00014
2680.61,-0.00030
2669.04,-0.00019
2657.47,-0.00009
2645.9,-0.00001
2634.33,0.00026
2622.76,0.00003
2611.19,0.00007
2599.62,0.00006
2588.04,0.00009
2576.47,-0.00006
2564.9,-0.00005
2553.33,-0.00004
2541.76,0.00004
2530.19,0.00018
2518.62,0.00005
2507.05,0.00007
2495.48,0.00013
2483.91,-0.00003
2472.33,-0.00005
2460.76,-0.00003
2449.19,0.00002
2437.62,0.00001
2426.05,0.00004
2414.48,0.00038
2402.91,0.00077
2391.34,0.00137
2379.77,0.00161
2368.2,0.00145
2356.63,0.00098
2345.05,0.00113
2333.48,0.00146
2321.91,0.00142
2310.34,0.00137
2298.77,0.00216
2287.2,0.00255
2275.63,0.00225
2264.06,0.00205
2252.49,0.00157
2240.92,0.00117
2229.34,0.00107
2217.77,0.00132
2206.2,0.00137
2194.63,0.00107
2183.06,0.00086
2171.49,0.00191
2159.92,0.00000
2148.35,0.00529
2136.78,0.00802
2125.21,0.01114
2113.63,0.01206
2102.06,0.01151
2090.49,0.01101
2078.92,0.00958
2067.35,0.00781
2055.78,0.00630
2044.21,0.00229
2032.64,0.00000
2021.07,0.00000
2009.5,0.00008
1997.92,0.00163
1986.35,0.00146
1974.78,0.00014
1963.21,0.00445
1951.64,0.00412
1940.07,0.00235
1928.5,0.00122
1916.93,0.00069
1905.36,0.00018
1893.79,0.00000
1882.21,-0.00009
1870.64,-0.00008
1859.07,0.00000
1847.5,0.00064
1835.93,0.00158
1824.36,0.00168
1812.79,0.00110
1801.22,0.00050
1789.65,0.00007
1778.08,-0.00007
1766.5,0.00105
1754.93,0.00692
1743.36,0.04990
1731.79,0.18458
1720.22,0.34873
1708.65,0.38513
1697.08,0.16334
1685.51,0.08872
1673.94,0.05550
1662.37,0.03153
1650.79,0.03437
1639.22,0.03548
1627.65,0.01106
1616.08,0.00883
1604.51,0.00369
1592.94,0.00000
1581.37,0.00928
1569.8,0.00694
1558.23,0.01171
1546.66,0.00996
1535.08,0.00267
1523.51,0.00227
1511.94,0.00669
1500.37,0.01323
1488.8,0.00012
1477.23,0.01008
1465.66,0.01727
1454.09,0.01533
1442.52,0.00991
1430.95,0.00286
1419.37,0.00783
1407.8,0.08058
1396.23,0.01575
1384.66,0.01626
1373.09,0.01058
1361.52,0.00168
1349.95,0.01175
1338.38,0.13634
1326.81,0.00255
1315.24,0.00445
1303.66,0.02278
1292.09,0.06495
1280.52,0.11779
1268.95,0.19321
1257.38,0.25879
1245.81,0.33789
1234.24,0.34009
1222.67,0.27812
1211.1,0.18555
1199.53,0.10654
1187.95,0.04587
1176.38,0.02850
1164.81,0.00137
1153.24,0.00400
1141.67,0.03706
1130.1,0.15778
1118.53,0.24675
1106.96,0.26511
1095.39,0.30897
1083.82,0.26937
1072.25,0.19775
1060.67,0.13472
1049.1,0.10412
1037.53,0.07726
1025.96,0.06987
1014.39,0.19738
1002.82,0.09413
991.248,0.06178
979.677,0.05328
968.106,0.09189
956.535,0.05490
944.964,0.03560
933.393,0.02446
921.822,0.01691
910.251,0.01478
898.68,0.02252
887.109,0.01912
875.538,0.06765
863.967,0.03695
852.396,0.04531
840.825,0.04875
829.254,0.02716
817.683,0.01830
806.112,0.01739
794.541,0.02716
782.97,0.01485
771.399,0.00699
759.828,0.00186
748.257,0.00006
736.686,0.05487
725.115,0.35357
713.544,0.20792
701.973,0.09349
690.402,0.04342
678.831,0.02892
667.26,0.01447
655.689,0.00474
649.904,0.00000