File: Exploratory-Data-Science/Model Testing of Backsheet Color and FTIR Data/FTIR/DampHeat-FTIR/UL DH 0hr PET 3.029-1.SPA.dpt
3999.71,0.00301
3988.13,0.00193
3976.56,0.00129
3964.99,0.00069
3953.42,0.00017
3941.85,-0.00018
3930.28,-0.00019
3918.71,-0.00016
3907.14,0.00003
3895.57,0.00019
3884,-0.00013
3872.42,0.00011
3860.85,0.00057
3849.28,0.00065
3837.71,-0.00010
3826.14,-0.00006
3814.57,-0.00038
3803,-0.00026
3791.43,-0.00014
3779.86,-0.00029
3768.29,-0.00006
3756.72,0.00048
3745.14,0.00000
3733.57,-0.00036
3722,-0.00074
3710.43,-0.00078
3698.86,-0.00055
3687.29,0.00015
3675.72,-0.00025
3664.15,-0.00037
3652.58,-0.00027
3641.01,-0.00008
3629.43,-0.00070
3617.86,-0.00053
3606.29,-0.00062
3594.72,-0.00051
3583.15,0.00026
3571.58,0.00032
3560.01,0.00035
3548.44,0.00046
3536.87,0.00010
3525.3,-0.00031
3513.72,-0.00066
3502.15,-0.00068
3490.58,-0.00035
3479.01,-0.00013
3467.44,-0.00050
3455.87,0.00000
3444.3,0.00144
3432.73,0.00560
3421.16,0.00257
3409.59,-0.00011
3398.01,-0.00020
3386.44,-0.00011
3374.87,-0.00029
3363.3,-0.00053
3351.73,-0.00038
3340.16,0.00024
3328.59,0.00027
3317.02,-0.00030
3305.45,-0.00015
3293.88,-0.00007
3282.3,-0.00018
3270.73,-0.00001
3259.16,-0.00041
3247.59,-0.00035
3236.02,-0.00010
3224.45,0.00005
3212.88,-0.00029
3201.31,-0.00030
3189.74,-0.00002
3178.17,-0.00002
3166.59,-0.00010
3155.02,-0.00071
3143.45,-0.00077
3131.88,-0.00009
3120.31,-0.00013
3108.74,0.00074
3097.17,0.00055
3085.6,0.00074
3074.03,0.00147
3062.46,0.00201
3050.88,0.00307
3039.31,-0.00046
3027.74,0.00000
3016.17,0.00433
3004.6,0.00420
2993.03,0.00507
2981.46,0.01108
2969.89,0.02605
2958.32,0.02005
2946.75,0.01039
2935.17,0.00774
2923.6,0.01521
2912.03,0.01892
2900.46,0.01093
2888.89,0.00621
2877.32,0.00393
2865.75,0.00456
2854.18,0.01004
2842.61,0.00375
2831.04,0.00015
2819.46,0.00011
2807.89,0.00061
2796.32,0.00033
2784.75,-0.00020
2773.18,-0.00024
2761.61,0.00000
2750.04,0.00020
2738.47,0.00003
2726.9,-0.00024
2715.33,-0.00021
2703.75,-0.00008
2692.18,-0.00024
2680.61,-0.00046
2669.04,-0.00037
2657.47,-0.00013
2645.9,-0.00010
2634.33,0.00016
2622.76,-0.00019
2611.19,-0.00023
2599.62,-0.00006
2588.04,0.00009
2576.47,-0.00013
2564.9,-0.00018
2553.33,-0.00008
2541.76,0.00013
2530.19,0.00019
2518.62,-0.00008
2507.05,-0.00007
2495.48,0.00005
2483.91,0.00000
2472.33,0.00014
2460.76,0.00062
2449.19,0.00135
2437.62,0.00278
2426.05,0.00481
2414.48,0.00717
2402.91,0.00978
2391.34,0.01247
2379.77,0.01209
2368.2,0.00189
2356.63,0.00069
2345.05,0.00402
2333.48,0.00129
2321.91,0.00307
2310.34,0.00636
2298.77,0.00805
2287.2,0.00831
2275.63,0.00665
2264.06,0.00544
2252.49,0.00413
2240.92,0.00280
2229.34,0.00202
2217.77,0.00146
2206.2,0.00091
2194.63,0.00041
2183.06,0.00000
2171.49,0.00097
2159.92,0.00000
2148.35,0.00468
2136.78,0.00722
2125.21,0.01019
2113.63,0.01127
2102.06,0.01049
2090.49,0.00989
2078.92,0.00820
2067.35,0.00631
2055.78,0.00488
2044.21,0.00139
2032.64,0.00000
2021.07,0.00000
2009.5,0.00027
1997.92,0.00151
1986.35,0.00171
1974.78,0.00144
1963.21,0.00749
1951.64,0.00599
1940.07,0.00286
1928.5,0.00117
1916.93,0.00032
1905.36,-0.00007
1893.79,-0.00026
1882.21,-0.00042
1870.64,-0.00034
1859.07,0.00000
1847.5,0.00079
1835.93,0.00221
1824.36,0.00256
1812.79,0.00195
1801.22,0.00094
1789.65,0.00012
1778.08,0.00004
1766.5,0.00207
1754.93,0.01133
1743.36,0.07526
1731.79,0.28307
1720.22,0.59179
1708.65,0.62880
1697.08,0.24657
1685.51,0.13479
1673.94,0.08322
1662.37,0.04332
1650.79,0.02392
1639.22,0.01402
1627.65,0.00778
1616.08,0.00811
1604.51,0.00336
1592.94,-0.00008
1581.37,0.01249
1569.8,0.00322
1558.23,-0.00079
1546.66,-0.00001
1535.08,-0.00020
1523.51,0.00283
1511.94,0.00968
1500.37,0.01957
1488.8,0.00033
1477.23,0.01661
1465.66,0.02127
1454.09,0.02364
1442.52,0.01491
1430.95,0.00209
1419.37,0.01292
1407.8,0.12889
1396.23,0.02467
1384.66,0.02360
1373.09,0.01718
1361.52,0.00196
1349.95,0.01931
1338.38,0.18343
1326.81,0.00372
1315.24,0.00888
1303.66,0.03720
1292.09,0.10467
1280.52,0.18700
1268.95,0.30932
1257.38,0.42764
1245.81,0.53894
1234.24,0.46309
1222.67,0.33651
1211.1,0.19959
1199.53,0.10498
1187.95,0.04078
1176.38,0.02851
1164.81,0.00068
1153.24,0.00850
1141.67,0.05929
1130.1,0.23459
1118.53,0.35509
1106.96,0.38006
1095.39,0.45012
1083.82,0.34797
1072.25,0.21552
1060.67,0.13238
1049.1,0.10573
1037.53,0.07996
1025.96,0.08827
1014.39,0.22747
1002.82,0.08022
991.248,0.04943
979.677,0.04595
968.106,0.08922
956.535,0.04058
944.964,0.01926
933.393,0.00819
921.822,0.00114
910.251,0.00178
898.68,0.01485
887.109,0.01310
875.538,0.08334
863.967,0.03974
852.396,0.05047
840.825,0.04927
829.254,0.02195
817.683,0.01267
806.112,0.01251
794.541,0.02744
782.97,0.01162
771.399,0.00379
759.828,0.00000
748.257,-0.00089
736.686,0.06871
725.115,0.45343
713.544,0.26563
701.973,0.11585
690.402,0.05024
678.831,0.03182
667.26,0.01307
655.689,0.00462
649.904,0.00000