File: Exploratory-Data-Science/Model Testing of Backsheet Color and FTIR Data/FTIR/DampHeat-FTIR/UL DH 0hr PET 3.030-2.SPA.dpt
3999.71,0.00288
3988.13,0.00191
3976.56,0.00126
3964.99,0.00061
3953.42,0.00012
3941.85,-0.00023
3930.28,-0.00032
3918.71,-0.00023
3907.14,-0.00002
3895.57,0.00002
3884,-0.00035
3872.42,-0.00042
3860.85,-0.00021
3849.28,-0.00006
3837.71,-0.00047
3826.14,-0.00043
3814.57,-0.00047
3803,-0.00022
3791.43,-0.00014
3779.86,-0.00027
3768.29,-0.00016
3756.72,0.00024
3745.14,-0.00026
3733.57,-0.00093
3722,-0.00085
3710.43,-0.00034
3698.86,0.00009
3687.29,0.00078
3675.72,0.00033
3664.15,0.00020
3652.58,0.00010
3641.01,0.00014
3629.43,-0.00080
3617.86,-0.00046
3606.29,-0.00051
3594.72,-0.00050
3583.15,0.00015
3571.58,0.00031
3560.01,0.00049
3548.44,0.00045
3536.87,0.00020
3525.3,-0.00027
3513.72,-0.00058
3502.15,-0.00050
3490.58,-0.00031
3479.01,-0.00015
3467.44,-0.00063
3455.87,0.00000
3444.3,0.00118
3432.73,0.00497
3421.16,0.00201
3409.59,0.00003
3398.01,0.00174
3386.44,0.00117
3374.87,-0.00055
3363.3,-0.00109
3351.73,-0.00081
3340.16,-0.00007
3328.59,0.00012
3317.02,-0.00021
3305.45,-0.00011
3293.88,0.00008
3282.3,-0.00012
3270.73,-0.00022
3259.16,-0.00067
3247.59,-0.00057
3236.02,-0.00038
3224.45,-0.00011
3212.88,-0.00021
3201.31,0.00006
3189.74,0.00069
3178.17,0.00044
3166.59,-0.00030
3155.02,-0.00110
3143.45,-0.00099
3131.88,-0.00022
3120.31,0.00000
3108.74,0.00091
3097.17,0.00066
3085.6,0.00090
3074.03,0.00161
3062.46,0.00209
3050.88,0.00309
3039.31,-0.00038
3027.74,0.00000
3016.17,0.00430
3004.6,0.00443
2993.03,0.00513
2981.46,0.01123
2969.89,0.02608
2958.32,0.02164
2946.75,0.01222
2935.17,0.01165
2923.6,0.02587
2912.03,0.02695
2900.46,0.01461
2888.89,0.00836
2877.32,0.00549
2865.75,0.00632
2854.18,0.01447
2842.61,0.00691
2831.04,0.00057
2819.46,0.00000
2807.89,0.00037
2796.32,0.00015
2784.75,-0.00032
2773.18,-0.00033
2761.61,-0.00009
2750.04,0.00008
2738.47,-0.00001
2726.9,-0.00033
2715.33,-0.00025
2703.75,-0.00009
2692.18,-0.00030
2680.61,-0.00045
2669.04,-0.00034
2657.47,-0.00003
2645.9,-0.00007
2634.33,0.00026
2622.76,-0.00012
2611.19,-0.00017
2599.62,-0.00005
2588.04,0.00016
2576.47,0.00023
2564.9,0.00046
2553.33,0.00088
2541.76,0.00152
2530.19,0.00233
2518.62,0.00285
2507.05,0.00370
2495.48,0.00473
2483.91,0.00555
2472.33,0.00676
2460.76,0.00846
2449.19,0.01026
2437.62,0.01290
2426.05,0.01602
2414.48,0.01950
2402.91,0.02336
2391.34,0.02728
2379.77,0.02566
2368.2,0.00403
2356.63,0.00204
2345.05,0.01032
2333.48,0.00515
2321.91,0.00991
2310.34,0.01754
2298.77,0.02088
2287.2,0.02073
2275.63,0.01809
2264.06,0.01595
2252.49,0.01375
2240.92,0.01124
2229.34,0.00957
2217.77,0.00784
2206.2,0.00637
2194.63,0.00473
2183.06,0.00322
2171.49,0.00337
2159.92,0.00000
2148.35,0.00609
2136.78,0.00906
2125.21,0.01255
2113.63,0.01350
2102.06,0.01255
2090.49,0.01193
2078.92,0.01011
2067.35,0.00792
2055.78,0.00644
2044.21,0.00212
2032.64,0.00005
2021.07,0.00020
2009.5,0.00030
1997.92,0.00217
1986.35,0.00231
1974.78,0.00123
1963.21,0.00702
1951.64,0.00595
1940.07,0.00296
1928.5,0.00129
1916.93,0.00047
1905.36,0.00000
1893.79,-0.00023
1882.21,-0.00042
1870.64,-0.00045
1859.07,-0.00011
1847.5,0.00066
1835.93,0.00193
1824.36,0.00222
1812.79,0.00166
1801.22,0.00069
1789.65,-0.00012
1778.08,-0.00030
1766.5,0.00161
1754.93,0.01068
1743.36,0.07376
1731.79,0.27526
1720.22,0.56799
1708.65,0.60497
1697.08,0.23815
1685.51,0.13043
1673.94,0.08063
1662.37,0.04269
1650.79,0.02668
1639.22,0.01699
1627.65,0.00972
1616.08,0.00844
1604.51,0.00345
1592.94,0.00000
1581.37,0.01231
1569.8,0.00329
1558.23,-0.00067
1546.66,-0.00013
1535.08,-0.00027
1523.51,0.00268
1511.94,0.00935
1500.37,0.01896
1488.8,0.00023
1477.23,0.01587
1465.66,0.02181
1454.09,0.02317
1442.52,0.01422
1430.95,0.00180
1419.37,0.01313
1407.8,0.12433
1396.23,0.02375
1384.66,0.02230
1373.09,0.01652
1361.52,0.00182
1349.95,0.01850
1338.38,0.17797
1326.81,0.00368
1315.24,0.00806
1303.66,0.03548
1292.09,0.10071
1280.52,0.17944
1268.95,0.29584
1257.38,0.40970
1245.81,0.51872
1234.24,0.45463
1222.67,0.33142
1211.1,0.19824
1199.53,0.10454
1187.95,0.04087
1176.38,0.02804
1164.81,0.00058
1153.24,0.00783
1141.67,0.05680
1130.1,0.22373
1118.53,0.34249
1106.96,0.36802
1095.39,0.43917
1083.82,0.34338
1072.25,0.21469
1060.67,0.13240
1049.1,0.10448
1037.53,0.07883
1025.96,0.08548
1014.39,0.22478
1002.82,0.08069
991.248,0.04953
979.677,0.04583
968.106,0.08823
956.535,0.04083
944.964,0.01952
933.393,0.00839
921.822,0.00119
910.251,0.00162
898.68,0.01436
887.109,0.01280
875.538,0.08117
863.967,0.03900
852.396,0.04959
840.825,0.04885
829.254,0.02222
817.683,0.01330
806.112,0.01299
794.541,0.02767
782.97,0.01221
771.399,0.00441
759.828,0.00045
748.257,-0.00049
736.686,0.06824
725.115,0.44240
713.544,0.25869
701.973,0.11366
690.402,0.04906
678.831,0.03064
667.26,0.00964
655.689,0.00360
649.904,0.00000