File: Exploratory-Data-Science/Model Testing of Backsheet Color and FTIR Data/FTIR/DampHeat-FTIR/UL DH 1000HR PET 3.079-2.SPA.dpt
3999.71,0.00143
3988.13,0.00089
3976.56,0.00068
3964.99,0.00031
3953.42,-0.00001
3941.85,-0.00005
3930.28,-0.00012
3918.71,0.00002
3907.14,0.00044
3895.57,0.00057
3884,0.00049
3872.42,0.00080
3860.85,0.00153
3849.28,0.00164
3837.71,0.00030
3826.14,0.00105
3814.57,0.00052
3803,0.00038
3791.43,0.00083
3779.86,0.00074
3768.29,0.00090
3756.72,0.00123
3745.14,0.00000
3733.57,0.00037
3722,0.00043
3710.43,-0.00021
3698.86,0.00044
3687.29,0.00014
3675.72,-0.00049
3664.15,0.00058
3652.58,0.00076
3641.01,0.00108
3629.43,-0.00018
3617.86,0.00010
3606.29,0.00005
3594.72,0.00010
3583.15,0.00035
3571.58,0.00032
3560.01,0.00037
3548.44,0.00050
3536.87,0.00037
3525.3,0.00009
3513.72,-0.00016
3502.15,-0.00024
3490.58,-0.00010
3479.01,-0.00009
3467.44,-0.00028
3455.87,-0.00008
3444.3,0.00057
3432.73,0.00272
3421.16,0.00113
3409.59,0.00006
3398.01,0.00104
3386.44,0.00066
3374.87,-0.00011
3363.3,-0.00083
3351.73,-0.00084
3340.16,-0.00032
3328.59,-0.00007
3317.02,0.00013
3305.45,0.00130
3293.88,0.00256
3282.3,0.00236
3270.73,0.00107
3259.16,-0.00004
3247.59,-0.00043
3236.02,-0.00041
3224.45,-0.00008
3212.88,0.00000
3201.31,0.00012
3189.74,0.00037
3178.17,0.00030
3166.59,-0.00015
3155.02,-0.00065
3143.45,-0.00070
3131.88,-0.00021
3120.31,-0.00005
3108.74,0.00055
3097.17,0.00066
3085.6,0.00104
3074.03,0.00130
3062.46,0.00139
3050.88,0.00206
3039.31,-0.00030
3027.74,-0.00005
3016.17,0.00266
3004.6,0.00211
2993.03,0.00219
2981.46,0.00559
2969.89,0.01559
2958.32,0.01286
2946.75,0.00833
2935.17,0.00906
2923.6,0.01813
2912.03,0.01848
2900.46,0.01067
2888.89,0.00593
2877.32,0.00396
2865.75,0.00464
2854.18,0.01081
2842.61,0.00529
2831.04,0.00053
2819.46,0.00000
2807.89,0.00031
2796.32,0.00010
2784.75,-0.00016
2773.18,-0.00016
2761.61,0.00000
2750.04,0.00018
2738.47,0.00008
2726.9,-0.00016
2715.33,-0.00012
2703.75,-0.00003
2692.18,-0.00018
2680.61,-0.00030
2669.04,-0.00022
2657.47,-0.00005
2645.9,0.00002
2634.33,0.00036
2622.76,0.00008
2611.19,-0.00000
2599.62,0.00000
2588.04,0.00012
2576.47,0.00002
2564.9,-0.00003
2553.33,0.00007
2541.76,0.00007
2530.19,0.00011
2518.62,-0.00002
2507.05,0.00000
2495.48,0.00005
2483.91,0.00000
2472.33,-0.00008
2460.76,0.00001
2449.19,-0.00002
2437.62,-0.00003
2426.05,0.00006
2414.48,0.00021
2402.91,0.00070
2391.34,0.00121
2379.77,0.00153
2368.2,0.00213
2356.63,0.00175
2345.05,0.00148
2333.48,0.00181
2321.91,0.00158
2310.34,0.00096
2298.77,0.00128
2287.2,0.00189
2275.63,0.00138
2264.06,0.00102
2252.49,0.00051
2240.92,0.00014
2229.34,0.00018
2217.77,0.00030
2206.2,0.00025
2194.63,0.00010
2183.06,0.00000
2171.49,0.00133
2159.92,0.00000
2148.35,0.00473
2136.78,0.00760
2125.21,0.01082
2113.63,0.01204
2102.06,0.01146
2090.49,0.01083
2078.92,0.00949
2067.35,0.00773
2055.78,0.00614
2044.21,0.00231
2032.64,0.00005
2021.07,0.00005
2009.5,0.00043
1997.92,0.00179
1986.35,0.00185
1974.78,0.00089
1963.21,0.00518
1951.64,0.00452
1940.07,0.00254
1928.5,0.00121
1916.93,0.00055
1905.36,0.00018
1893.79,0.00000
1882.21,-0.00015
1870.64,-0.00020
1859.07,0.00000
1847.5,0.00066
1835.93,0.00180
1824.36,0.00182
1812.79,0.00131
1801.22,0.00065
1789.65,0.00012
1778.08,0.00002
1766.5,0.00127
1754.93,0.00746
1743.36,0.05169
1731.79,0.19929
1720.22,0.39285
1708.65,0.43664
1697.08,0.18401
1685.51,0.09967
1673.94,0.06256
1662.37,0.03408
1650.79,0.02350
1639.22,0.01939
1627.65,0.00951
1616.08,0.00724
1604.51,0.00306
1592.94,-0.00003
1581.37,0.00989
1569.8,0.00429
1558.23,0.00213
1546.66,0.00220
1535.08,0.00019
1523.51,0.00168
1511.94,0.00675
1500.37,0.01458
1488.8,0.00017
1477.23,0.01122
1465.66,0.01590
1454.09,0.01641
1442.52,0.01035
1430.95,0.00153
1419.37,0.00972
1407.8,0.09153
1396.23,0.01809
1384.66,0.01834
1373.09,0.01232
1361.52,0.00148
1349.95,0.01388
1338.38,0.14770
1326.81,0.00296
1315.24,0.00500
1303.66,0.02524
1292.09,0.07316
1280.52,0.13187
1268.95,0.21685
1257.38,0.29040
1245.81,0.37525
1234.24,0.36562
1222.67,0.29311
1211.1,0.19099
1199.53,0.10706
1187.95,0.04489
1176.38,0.02672
1164.81,0.00112
1153.24,0.00520
1141.67,0.04224
1130.1,0.17405
1118.53,0.27084
1106.96,0.29041
1095.39,0.33856
1083.82,0.28855
1072.25,0.20533
1060.67,0.13712
1049.1,0.10597
1037.53,0.07928
1025.96,0.07494
1014.39,0.20598
1002.82,0.09305
991.248,0.06059
979.677,0.05299
968.106,0.09341
956.535,0.05341
944.964,0.03325
933.393,0.02195
921.822,0.01423
910.251,0.01269
898.68,0.02181
887.109,0.01880
875.538,0.07216
863.967,0.03886
852.396,0.04803
840.825,0.05041
829.254,0.02698
817.683,0.01793
806.112,0.01674
794.541,0.02795
782.97,0.01479
771.399,0.00692
759.828,0.00201
748.257,0.00000
736.686,0.05913
725.115,0.37929
713.544,0.21985
701.973,0.09857
690.402,0.04460
678.831,0.02880
667.26,0.01449
655.689,0.00477
649.904,0.00000