File: Exploratory-Data-Science/Model Testing of Backsheet Color and FTIR Data/FTIR/DampHeat-FTIR/UL DH 1000HR PET 3.079-1.SPA.dpt
3999.71,0.00191
3988.13,0.00118
3976.56,0.00075
3964.99,0.00033
3953.42,0.00006
3941.85,-0.00007
3930.28,-0.00019
3918.71,-0.00015
3907.14,0.00029
3895.57,0.00040
3884,0.00039
3872.42,0.00071
3860.85,0.00139
3849.28,0.00167
3837.71,0.00028
3826.14,0.00089
3814.57,0.00042
3803,0.00037
3791.43,0.00081
3779.86,0.00068
3768.29,0.00084
3756.72,0.00111
3745.14,0.00000
3733.57,0.00031
3722,0.00023
3710.43,-0.00031
3698.86,0.00031
3687.29,0.00012
3675.72,-0.00050
3664.15,0.00045
3652.58,0.00059
3641.01,0.00103
3629.43,-0.00009
3617.86,0.00002
3606.29,0.00006
3594.72,0.00010
3583.15,0.00033
3571.58,0.00033
3560.01,0.00048
3548.44,0.00065
3536.87,0.00053
3525.3,0.00008
3513.72,-0.00007
3502.15,-0.00025
3490.58,-0.00013
3479.01,-0.00010
3467.44,-0.00029
3455.87,-0.00020
3444.3,0.00047
3432.73,0.00323
3421.16,0.00130
3409.59,-0.00005
3398.01,0.00108
3386.44,0.00083
3374.87,-0.00014
3363.3,-0.00089
3351.73,-0.00094
3340.16,-0.00032
3328.59,-0.00009
3317.02,0.00008
3305.45,0.00127
3293.88,0.00250
3282.3,0.00221
3270.73,0.00095
3259.16,-0.00017
3247.59,-0.00058
3236.02,-0.00045
3224.45,-0.00011
3212.88,-0.00009
3201.31,0.00010
3189.74,0.00042
3178.17,0.00035
3166.59,-0.00013
3155.02,-0.00069
3143.45,-0.00067
3131.88,-0.00013
3120.31,0.00000
3108.74,0.00074
3097.17,0.00087
3085.6,0.00122
3074.03,0.00162
3062.46,0.00177
3050.88,0.00256
3039.31,-0.00017
3027.74,0.00000
3016.17,0.00343
3004.6,0.00285
2993.03,0.00308
2981.46,0.00727
2969.89,0.01905
2958.32,0.01524
2946.75,0.00965
2935.17,0.01022
2923.6,0.01990
2912.03,0.02079
2900.46,0.01214
2888.89,0.00678
2877.32,0.00452
2865.75,0.00531
2854.18,0.01184
2842.61,0.00581
2831.04,0.00062
2819.46,0.00004
2807.89,0.00037
2796.32,0.00018
2784.75,-0.00017
2773.18,-0.00018
2761.61,0.00002
2750.04,0.00018
2738.47,0.00004
2726.9,-0.00020
2715.33,-0.00011
2703.75,0.00000
2692.18,-0.00019
2680.61,-0.00020
2669.04,-0.00013
2657.47,-0.00002
2645.9,0.00007
2634.33,0.00052
2622.76,0.00019
2611.19,0.00006
2599.62,0.00007
2588.04,0.00021
2576.47,0.00006
2564.9,0.00014
2553.33,0.00020
2541.76,0.00018
2530.19,0.00030
2518.62,0.00003
2507.05,0.00002
2495.48,0.00010
2483.91,-0.00001
2472.33,-0.00013
2460.76,-0.00007
2449.19,-0.00002
2437.62,-0.00001
2426.05,0.00010
2414.48,0.00032
2402.91,0.00082
2391.34,0.00136
2379.77,0.00170
2368.2,0.00206
2356.63,0.00149
2345.05,0.00128
2333.48,0.00157
2321.91,0.00138
2310.34,0.00081
2298.77,0.00122
2287.2,0.00200
2275.63,0.00141
2264.06,0.00124
2252.49,0.00071
2240.92,0.00014
2229.34,0.00027
2217.77,0.00016
2206.2,0.00016
2194.63,0.00025
2183.06,0.00009
2171.49,0.00153
2159.92,0.00001
2148.35,0.00532
2136.78,0.00829
2125.21,0.01158
2113.63,0.01299
2102.06,0.01219
2090.49,0.01151
2078.92,0.00996
2067.35,0.00811
2055.78,0.00631
2044.21,0.00242
2032.64,0.00012
2021.07,0.00006
2009.5,0.00046
1997.92,0.00182
1986.35,0.00212
1974.78,0.00093
1963.21,0.00568
1951.64,0.00492
1940.07,0.00281
1928.5,0.00137
1916.93,0.00062
1905.36,0.00018
1893.79,-0.00006
1882.21,-0.00016
1870.64,-0.00022
1859.07,0.00000
1847.5,0.00068
1835.93,0.00188
1824.36,0.00194
1812.79,0.00134
1801.22,0.00063
1789.65,-0.00000
1778.08,-0.00005
1766.5,0.00149
1754.93,0.00849
1743.36,0.05792
1731.79,0.22184
1720.22,0.44523
1708.65,0.47306
1697.08,0.19161
1685.51,0.10345
1673.94,0.06413
1662.37,0.03431
1650.79,0.02384
1639.22,0.01981
1627.65,0.00947
1616.08,0.00738
1604.51,0.00304
1592.94,-0.00003
1581.37,0.01089
1569.8,0.00454
1558.23,0.00226
1546.66,0.00235
1535.08,0.00014
1523.51,0.00182
1511.94,0.00760
1500.37,0.01578
1488.8,0.00017
1477.23,0.01228
1465.66,0.01744
1454.09,0.01797
1442.52,0.01126
1430.95,0.00163
1419.37,0.01092
1407.8,0.10005
1396.23,0.01946
1384.66,0.01969
1373.09,0.01333
1361.52,0.00156
1349.95,0.01539
1338.38,0.16092
1326.81,0.00346
1315.24,0.00583
1303.66,0.02794
1292.09,0.07974
1280.52,0.14347
1268.95,0.23632
1257.38,0.31889
1245.81,0.40999
1234.24,0.38581
1222.67,0.30573
1211.1,0.19806
1199.53,0.10989
1187.95,0.04543
1176.38,0.02752
1164.81,0.00097
1153.24,0.00582
1141.67,0.04623
1130.1,0.18908
1118.53,0.29262
1106.96,0.31319
1095.39,0.36274
1083.82,0.30149
1072.25,0.20976
1060.67,0.13902
1049.1,0.10831
1037.53,0.08083
1025.96,0.07934
1014.39,0.21293
1002.82,0.09319
991.248,0.06028
979.677,0.05320
968.106,0.09529
956.535,0.05252
944.964,0.03163
933.393,0.02008
921.822,0.01232
910.251,0.01113
898.68,0.02099
887.109,0.01811
875.538,0.07554
863.967,0.03951
852.396,0.04928
840.825,0.05095
829.254,0.02645
817.683,0.01733
806.112,0.01638
794.541,0.02839
782.97,0.01448
771.399,0.00655
759.828,0.00173
748.257,0.00000
736.686,0.06147
725.115,0.39439
713.544,0.23233
701.973,0.10365
690.402,0.04671
678.831,0.03026
667.26,0.01527
655.689,0.00510
649.904,0.00000