File: Exploratory-Data-Science/Model Testing of Backsheet Color and FTIR Data/FTIR/XENON1-FTIR/Arkema XENON 3800HR PET 3.005-2.SPA.dpt
3999.71,0.00073
3988.13,0.00043
3976.56,0.00022
3964.99,0.00009
3953.42,-0.00003
3941.85,-0.00017
3930.28,-0.00017
3918.71,-0.00009
3907.14,-0.00007
3895.57,-0.00002
3884,-0.00006
3872.42,-0.00009
3860.85,-0.00000
3849.28,0.00003
3837.71,0.00015
3826.14,-0.00000
3814.57,0.00001
3803,-0.00005
3791.43,-0.00007
3779.86,-0.00000
3768.29,-0.00014
3756.72,-0.00005
3745.14,0.00015
3733.57,0.00009
3722,-0.00007
3710.43,-0.00005
3698.86,-0.00004
3687.29,0.00002
3675.72,0.00004
3664.15,-0.00018
3652.58,-0.00010
3641.01,0.00010
3629.43,0.00021
3617.86,0.00018
3606.29,0.00001
3594.72,0.00009
3583.15,0.00003
3571.58,0.00003
3560.01,0.00003
3548.44,0.00003
3536.87,0.00012
3525.3,0.00010
3513.72,0.00005
3502.15,-0.00005
3490.58,-0.00001
3479.01,-0.00004
3467.44,-0.00010
3455.87,-0.00013
3444.3,-0.00013
3432.73,0.00000
3421.16,-0.00001
3409.59,-0.00011
3398.01,0.00002
3386.44,0.00000
3374.87,0.00007
3363.3,-0.00014
3351.73,-0.00022
3340.16,-0.00005
3328.59,0.00001
3317.02,0.00000
3305.45,-0.00007
3293.88,0.00000
3282.3,-0.00006
3270.73,-0.00001
3259.16,-0.00008
3247.59,-0.00007
3236.02,-0.00011
3224.45,0.00002
3212.88,-0.00004
3201.31,-0.00004
3189.74,-0.00008
3178.17,-0.00004
3166.59,0.00000
3155.02,-0.00016
3143.45,-0.00009
3131.88,-0.00007
3120.31,0.00000
3108.74,0.00064
3097.17,0.00107
3085.6,0.00141
3074.03,0.00263
3062.46,0.00437
3050.88,0.00140
3039.31,0.00115
3027.74,0.00155
3016.17,0.00232
3004.6,0.00313
2993.03,0.00366
2981.46,0.00414
2969.89,0.00420
2958.32,0.00333
2946.75,0.00275
2935.17,0.00137
2923.6,0.00000
2912.03,0.00131
2900.46,0.00242
2888.89,0.00307
2877.32,0.00315
2865.75,0.00279
2854.18,0.00239
2842.61,0.00443
2831.04,0.00560
2819.46,0.00629
2807.89,0.00567
2796.32,0.00439
2784.75,0.00276
2773.18,0.00154
2761.61,0.00064
2750.04,-0.00008
2738.47,-0.00019
2726.9,-0.00004
2715.33,0.00006
2703.75,0.00009
2692.18,0.00166
2680.61,0.00453
2669.04,0.00667
2657.47,0.00657
2645.9,0.00531
2634.33,0.00388
2622.76,0.00283
2611.19,0.00220
2599.62,0.00206
2588.04,0.00215
2576.47,0.00316
2564.9,0.00666
2553.33,0.00952
2541.76,0.01012
2530.19,0.00892
2518.62,0.00701
2507.05,0.00509
2495.48,0.00344
2483.91,0.00229
2472.33,0.00135
2460.76,0.00086
2449.19,0.00034
2437.62,0.00013
2426.05,0.00005
2414.48,0.00004
2402.91,0.00009
2391.34,0.00005
2379.77,0.00003
2368.2,0.00037
2356.63,0.00034
2345.05,0.00024
2333.48,0.00044
2321.91,0.00043
2310.34,0.00028
2298.77,0.00036
2287.2,0.00045
2275.63,0.00022
2264.06,0.00016
2252.49,0.00000
2240.92,-0.00001
2229.34,0.00021
2217.77,0.00014
2206.2,0.00002
2194.63,0.00023
2183.06,0.00016
2171.49,0.00066
2159.92,0.00000
2148.35,0.00229
2136.78,0.00342
2125.21,0.00448
2113.63,0.00464
2102.06,0.00432
2090.49,0.00431
2078.92,0.00397
2067.35,0.00344
2055.78,0.00309
2044.21,0.00129
2032.64,0.00009
2021.07,0.00026
2009.5,0.00038
1997.92,0.00050
1986.35,0.00035
1974.78,0.00000
1963.21,0.00187
1951.64,0.00183
1940.07,0.00125
1928.5,0.00108
1916.93,0.00091
1905.36,0.00059
1893.79,0.00030
1882.21,0.00017
1870.64,0.00014
1859.07,0.00017
1847.5,0.00000
1835.93,0.00021
1824.36,-0.00002
1812.79,0.00046
1801.22,0.00156
1789.65,0.00240
1778.08,0.00260
1766.5,0.00285
1754.93,0.00460
1743.36,0.01087
1731.79,0.02879
1720.22,0.05813
1708.65,0.07303
1697.08,0.10594
1685.51,0.14306
1673.94,0.13139
1662.37,0.06320
1650.79,0.03543
1639.22,0.02319
1627.65,0.01650
1616.08,0.01392
1604.51,0.01080
1592.94,0.00547
1581.37,0.01012
1569.8,0.01440
1558.23,0.00315
1546.66,0.00080
1535.08,0.00023
1523.51,0.00028
1511.94,0.01814
1500.37,0.00482
1488.8,0.00003
1477.23,0.00102
1465.66,0.00200
1454.09,0.00368
1442.52,0.00858
1430.95,0.03363
1419.37,0.04079
1407.8,0.03930
1396.23,0.01240
1384.66,0.00913
1373.09,0.00378
1361.52,0.00041
1349.95,0.00254
1338.38,0.03081
1326.81,0.01981
1315.24,0.02839
1303.66,0.04302
1292.09,0.06498
1280.52,0.07141
1268.95,0.07153
1257.38,0.08306
1245.81,0.10145
1234.24,0.09505
1222.67,0.07938
1211.1,0.06638
1199.53,0.05645
1187.95,0.04294
1176.38,0.02971
1164.81,0.01352
1153.24,0.00356
1141.67,0.01019
1130.1,0.05149
1118.53,0.07171
1106.96,0.08022
1095.39,0.08260
1083.82,0.07567
1072.25,0.06397
1060.67,0.04891
1049.1,0.03573
1037.53,0.02237
1025.96,0.00963
1014.39,0.05487
1002.82,0.02977
991.248,0.02010
979.677,0.01570
968.106,0.02765
956.535,0.02920
944.964,0.03375
933.393,0.03253
921.822,0.02280
910.251,0.01357
898.68,0.00770
887.109,0.00462
875.538,0.01771
863.967,0.00723
852.396,0.00751
840.825,0.01149
829.254,0.00700
817.683,0.00329
806.112,0.00000
794.541,0.00315
782.97,0.02261
771.399,0.01221
759.828,0.00754
748.257,0.00332
736.686,0.01296
725.115,0.08536
713.544,0.06766
701.973,0.04700
690.402,0.03515
678.831,0.02641
667.26,0.01871
655.689,0.00642
649.904,0.00000