File: Exploratory-Data-Science/Model Testing of Backsheet Color and FTIR Data/FTIR/XENON1-FTIR/Arkema XENON 2000HR PET 3.019-1.SPA.dpt
3999.71,0.00115
3988.13,0.00072
3976.56,0.00042
3964.99,0.00029
3953.42,0.00005
3941.85,-0.00007
3930.28,-0.00018
3918.71,-0.00009
3907.14,-0.00008
3895.57,-0.00003
3884,-0.00021
3872.42,-0.00018
3860.85,-0.00020
3849.28,-0.00004
3837.71,-0.00001
3826.14,-0.00014
3814.57,-0.00015
3803,-0.00008
3791.43,-0.00005
3779.86,-0.00011
3768.29,-0.00004
3756.72,-0.00003
3745.14,-0.00006
3733.57,0.00001
3722,-0.00019
3710.43,-0.00021
3698.86,-0.00006
3687.29,-0.00008
3675.72,-0.00029
3664.15,-0.00036
3652.58,-0.00024
3641.01,0.00000
3629.43,0.00004
3617.86,0.00003
3606.29,0.00002
3594.72,-0.00003
3583.15,0.00004
3571.58,-0.00009
3560.01,-0.00016
3548.44,-0.00011
3536.87,-0.00005
3525.3,-0.00004
3513.72,-0.00000
3502.15,0.00004
3490.58,0.00005
3479.01,0.00004
3467.44,-0.00010
3455.87,-0.00014
3444.3,-0.00029
3432.73,-0.00000
3421.16,-0.00018
3409.59,-0.00015
3398.01,-0.00016
3386.44,-0.00008
3374.87,-0.00003
3363.3,-0.00012
3351.73,-0.00021
3340.16,-0.00014
3328.59,0.00000
3317.02,0.00009
3305.45,-0.00005
3293.88,-0.00004
3282.3,0.00003
3270.73,-0.00002
3259.16,-0.00006
3247.59,-0.00022
3236.02,-0.00022
3224.45,-0.00006
3212.88,-0.00009
3201.31,-0.00008
3189.74,-0.00005
3178.17,-0.00009
3166.59,-0.00002
3155.02,-0.00019
3143.45,-0.00020
3131.88,-0.00008
3120.31,-0.00003
3108.74,0.00078
3097.17,0.00147
3085.6,0.00198
3074.03,0.00381
3062.46,0.00671
3050.88,0.00253
3039.31,0.00175
3027.74,0.00230
3016.17,0.00359
3004.6,0.00486
2993.03,0.00598
2981.46,0.00704
2969.89,0.00785
2958.32,0.00728
2946.75,0.00653
2935.17,0.00534
2923.6,0.00421
2912.03,0.00461
2900.46,0.00588
2888.89,0.00667
2877.32,0.00708
2865.75,0.00675
2854.18,0.00722
2842.61,0.00899
2831.04,0.01071
2819.46,0.01196
2807.89,0.01131
2796.32,0.00923
2784.75,0.00642
2773.18,0.00396
2761.61,0.00210
2750.04,0.00047
2738.47,0.00001
2726.9,0.00012
2715.33,0.00028
2703.75,0.00035
2692.18,0.00286
2680.61,0.00777
2669.04,0.01220
2657.47,0.01301
2645.9,0.01129
2634.33,0.00915
2622.76,0.00741
2611.19,0.00633
2599.62,0.00605
2588.04,0.00636
2576.47,0.00800
2564.9,0.01383
2553.33,0.01947
2541.76,0.02126
2530.19,0.01986
2518.62,0.01664
2507.05,0.01315
2495.48,0.00993
2483.91,0.00736
2472.33,0.00529
2460.76,0.00398
2449.19,0.00260
2437.62,0.00150
2426.05,0.00079
2414.48,0.00035
2402.91,0.00021
2391.34,0.00004
2379.77,0.00003
2368.2,0.00053
2356.63,0.00054
2345.05,0.00030
2333.48,0.00060
2321.91,0.00050
2310.34,0.00037
2298.77,0.00047
2287.2,0.00063
2275.63,0.00051
2264.06,0.00018
2252.49,0.00007
2240.92,0.00005
2229.34,0.00015
2217.77,0.00014
2206.2,-0.00000
2194.63,0.00040
2183.06,0.00006
2171.49,0.00101
2159.92,0.00000
2148.35,0.00267
2136.78,0.00423
2125.21,0.00579
2113.63,0.00631
2102.06,0.00608
2090.49,0.00572
2078.92,0.00535
2067.35,0.00465
2055.78,0.00389
2044.21,0.00156
2032.64,0.00011
2021.07,0.00000
2009.5,0.00007
1997.92,0.00055
1986.35,0.00029
1974.78,-0.00019
1963.21,0.00237
1951.64,0.00230
1940.07,0.00154
1928.5,0.00132
1916.93,0.00105
1905.36,0.00062
1893.79,0.00015
1882.21,0.00006
1870.64,0.00002
1859.07,0.00015
1847.5,0.00000
1835.93,0.00063
1824.36,0.00061
1812.79,0.00184
1801.22,0.00428
1789.65,0.00642
1778.08,0.00748
1766.5,0.00842
1754.93,0.01199
1743.36,0.02265
1731.79,0.05074
1720.22,0.09120
1708.65,0.10275
1697.08,0.13913
1685.51,0.20426
1673.94,0.22542
1662.37,0.11764
1650.79,0.06721
1639.22,0.04541
1627.65,0.03328
1616.08,0.02789
1604.51,0.02196
1592.94,0.01151
1581.37,0.01810
1569.8,0.02624
1558.23,0.00569
1546.66,0.00142
1535.08,0.00023
1523.51,0.00057
1511.94,0.02799
1500.37,0.00864
1488.8,0.00012
1477.23,0.00138
1465.66,0.00326
1454.09,0.00628
1442.52,0.01333
1430.95,0.04737
1419.37,0.06450
1407.8,0.06284
1396.23,0.02077
1384.66,0.01474
1373.09,0.00642
1361.52,0.00078
1349.95,0.00356
1338.38,0.04502
1326.81,0.02887
1315.24,0.04214
1303.66,0.05835
1292.09,0.09294
1280.52,0.10434
1268.95,0.10756
1257.38,0.12493
1245.81,0.15596
1234.24,0.15223
1222.67,0.12906
1211.1,0.10733
1199.53,0.08873
1187.95,0.06659
1176.38,0.04769
1164.81,0.02374
1153.24,0.00687
1141.67,0.01234
1130.1,0.06828
1118.53,0.10118
1106.96,0.11454
1095.39,0.11809
1083.82,0.10350
1072.25,0.08714
1060.67,0.06888
1049.1,0.05224
1037.53,0.03494
1025.96,0.01622
1014.39,0.08350
1002.82,0.04762
991.248,0.03432
979.677,0.02828
968.106,0.04508
956.535,0.04723
944.964,0.05307
933.393,0.05094
921.822,0.03661
910.251,0.02298
898.68,0.01434
887.109,0.01009
875.538,0.02838
863.967,0.01220
852.396,0.01073
840.825,0.01337
829.254,0.00429
817.683,0.00031
806.112,0.00004
794.541,0.00670
782.97,0.03211
771.399,0.01678
759.828,0.00729
748.257,0.00114
736.686,0.03154
725.115,0.12937
713.544,0.07735
701.973,0.04242
690.402,0.02824
678.831,0.02116
667.26,0.01489
655.689,0.00503
649.904,0.00000