File: Exploratory-Data-Science/Model Testing of Backsheet Color and FTIR Data/FTIR/XENON1-FTIR/Arkema XENON 0HR PET 3.011-1.SPA.dpt
3999.71,0.00260
3988.13,0.00181
3976.56,0.00109
3964.99,0.00059
3953.42,0.00022
3941.85,-0.00028
3930.28,-0.00034
3918.71,-0.00027
3907.14,-0.00019
3895.57,-0.00014
3884,-0.00042
3872.42,-0.00038
3860.85,-0.00042
3849.28,-0.00014
3837.71,-0.00010
3826.14,-0.00043
3814.57,-0.00027
3803,-0.00006
3791.43,-0.00008
3779.86,-0.00025
3768.29,-0.00014
3756.72,-0.00000
3745.14,0.00012
3733.57,-0.00025
3722,-0.00066
3710.43,-0.00066
3698.86,-0.00036
3687.29,0.00041
3675.72,-0.00033
3664.15,-0.00064
3652.58,-0.00024
3641.01,-0.00008
3629.43,-0.00009
3617.86,-0.00032
3606.29,-0.00068
3594.72,-0.00053
3583.15,-0.00004
3571.58,0.00005
3560.01,0.00025
3548.44,0.00034
3536.87,0.00005
3525.3,-0.00017
3513.72,-0.00047
3502.15,-0.00044
3490.58,-0.00026
3479.01,-0.00009
3467.44,-0.00037
3455.87,0.00004
3444.3,0.00123
3432.73,0.00475
3421.16,0.00261
3409.59,0.00041
3398.01,-0.00033
3386.44,-0.00018
3374.87,0.00015
3363.3,-0.00031
3351.73,-0.00022
3340.16,0.00033
3328.59,0.00023
3317.02,-0.00034
3305.45,-0.00028
3293.88,-0.00014
3282.3,-0.00017
3270.73,-0.00007
3259.16,-0.00032
3247.59,-0.00037
3236.02,-0.00011
3224.45,-0.00011
3212.88,-0.00045
3201.31,-0.00054
3189.74,-0.00036
3178.17,-0.00028
3166.59,-0.00009
3155.02,-0.00048
3143.45,-0.00056
3131.88,-0.00005
3120.31,-0.00010
3108.74,0.00054
3097.17,0.00054
3085.6,0.00072
3074.03,0.00138
3062.46,0.00195
3050.88,0.00300
3039.31,-0.00024
3027.74,0.00000
3016.17,0.00348
3004.6,0.00349
2993.03,0.00432
2981.46,0.00952
2969.89,0.02280
2958.32,0.01735
2946.75,0.00951
2935.17,0.00492
2923.6,0.00367
2912.03,0.00690
2900.46,0.00781
2888.89,0.00469
2877.32,0.00351
2865.75,0.00379
2854.18,0.00383
2842.61,0.00088
2831.04,0.00024
2819.46,0.00013
2807.89,0.00045
2796.32,0.00026
2784.75,-0.00019
2773.18,-0.00030
2761.61,-0.00006
2750.04,0.00014
2738.47,0.00006
2726.9,-0.00026
2715.33,-0.00016
2703.75,-0.00004
2692.18,-0.00020
2680.61,-0.00042
2669.04,-0.00026
2657.47,-0.00012
2645.9,0.00000
2634.33,0.00025
2622.76,-0.00001
2611.19,-0.00015
2599.62,-0.00003
2588.04,0.00007
2576.47,-0.00011
2564.9,-0.00006
2553.33,-0.00008
2541.76,0.00008
2530.19,0.00019
2518.62,-0.00002
2507.05,0.00010
2495.48,0.00020
2483.91,0.00005
2472.33,0.00005
2460.76,0.00006
2449.19,0.00020
2437.62,0.00093
2426.05,0.00222
2414.48,0.00383
2402.91,0.00552
2391.34,0.00725
2379.77,0.00730
2368.2,0.00149
2356.63,0.00041
2345.05,0.00237
2333.48,0.00069
2321.91,0.00187
2310.34,0.00371
2298.77,0.00488
2287.2,0.00537
2275.63,0.00430
2264.06,0.00351
2252.49,0.00250
2240.92,0.00131
2229.34,0.00110
2217.77,0.00085
2206.2,0.00065
2194.63,0.00005
2183.06,0.00000
2171.49,0.00080
2159.92,0.00001
2148.35,0.00435
2136.78,0.00707
2125.21,0.00967
2113.63,0.01086
2102.06,0.01039
2090.49,0.00970
2078.92,0.00829
2067.35,0.00656
2055.78,0.00512
2044.21,0.00163
2032.64,0.00003
2021.07,0.00000
2009.5,0.00025
1997.92,0.00127
1986.35,0.00131
1974.78,0.00069
1963.21,0.00622
1951.64,0.00550
1940.07,0.00291
1928.5,0.00125
1916.93,0.00049
1905.36,0.00001
1893.79,-0.00017
1882.21,-0.00028
1870.64,-0.00024
1859.07,-0.00013
1847.5,0.00058
1835.93,0.00180
1824.36,0.00204
1812.79,0.00126
1801.22,0.00042
1789.65,-0.00017
1778.08,-0.00034
1766.5,0.00131
1754.93,0.00934
1743.36,0.06544
1731.79,0.24750
1720.22,0.49773
1708.65,0.53384
1697.08,0.22196
1685.51,0.12472
1673.94,0.07910
1662.37,0.04337
1650.79,0.02461
1639.22,0.01479
1627.65,0.00887
1616.08,0.00915
1604.51,0.00435
1592.94,0.00100
1581.37,0.01238
1569.8,0.00423
1558.23,0.00087
1546.66,0.00064
1535.08,0.00064
1523.51,0.00403
1511.94,0.00902
1500.37,0.01854
1488.8,0.00027
1477.23,0.01380
1465.66,0.01780
1454.09,0.02111
1442.52,0.01343
1430.95,0.00197
1419.37,0.01123
1407.8,0.11362
1396.23,0.02249
1384.66,0.02173
1373.09,0.01589
1361.52,0.00200
1349.95,0.01650
1338.38,0.16883
1326.81,0.00366
1315.24,0.00732
1303.66,0.03149
1292.09,0.09042
1280.52,0.16021
1268.95,0.26258
1257.38,0.35840
1245.81,0.45630
1234.24,0.41906
1222.67,0.32025
1211.1,0.20318
1199.53,0.11371
1187.95,0.04796
1176.38,0.03057
1164.81,0.00139
1153.24,0.00626
1141.67,0.04985
1130.1,0.20134
1118.53,0.31367
1106.96,0.33653
1095.39,0.40087
1083.82,0.32522
1072.25,0.21625
1060.67,0.14084
1049.1,0.11175
1037.53,0.08553
1025.96,0.08272
1014.39,0.22225
1002.82,0.09204
991.248,0.05957
979.677,0.05293
968.106,0.09489
956.535,0.05120
944.964,0.02965
933.393,0.01801
921.822,0.01011
910.251,0.00932
898.68,0.02066
887.109,0.01812
875.538,0.08088
863.967,0.04211
852.396,0.05102
840.825,0.05247
829.254,0.02708
817.683,0.01768
806.112,0.01693
794.541,0.03009
782.97,0.01557
771.399,0.00732
759.828,0.00206
748.257,0.00000
736.686,0.06394
725.115,0.41444
713.544,0.24747
701.973,0.11302
690.402,0.05176
678.831,0.03349
667.26,0.01559
655.689,0.00537
649.904,0.00000