File: Exploratory-Data-Science/Model Testing of Backsheet Color and FTIR Data/FTIR/XENON1-FTIR/Arkema XENON 3800HR PET 3.024-1.SPA.dpt
3999.71,0.00101
3988.13,0.00063
3976.56,0.00032
3964.99,0.00019
3953.42,0.00004
3941.85,-0.00012
3930.28,-0.00009
3918.71,-0.00008
3907.14,-0.00013
3895.57,0.00002
3884,-0.00007
3872.42,-0.00007
3860.85,-0.00014
3849.28,-0.00001
3837.71,0.00007
3826.14,-0.00000
3814.57,-0.00003
3803,-0.00007
3791.43,-0.00006
3779.86,-0.00002
3768.29,-0.00010
3756.72,-0.00004
3745.14,0.00012
3733.57,0.00009
3722,-0.00011
3710.43,-0.00012
3698.86,-0.00012
3687.29,-0.00002
3675.72,-0.00009
3664.15,-0.00045
3652.58,-0.00028
3641.01,-0.00003
3629.43,-0.00000
3617.86,-0.00002
3606.29,-0.00011
3594.72,-0.00009
3583.15,-0.00002
3571.58,-0.00012
3560.01,-0.00014
3548.44,-0.00010
3536.87,0.00007
3525.3,0.00006
3513.72,-0.00003
3502.15,-0.00003
3490.58,-0.00004
3479.01,-0.00010
3467.44,-0.00011
3455.87,-0.00014
3444.3,-0.00001
3432.73,0.00012
3421.16,-0.00001
3409.59,-0.00012
3398.01,-0.00007
3386.44,-0.00010
3374.87,0.00005
3363.3,-0.00020
3351.73,-0.00027
3340.16,-0.00002
3328.59,0.00007
3317.02,0.00004
3305.45,0.00003
3293.88,0.00004
3282.3,0.00007
3270.73,-0.00007
3259.16,-0.00021
3247.59,-0.00021
3236.02,-0.00009
3224.45,-0.00006
3212.88,-0.00010
3201.31,-0.00009
3189.74,-0.00001
3178.17,-0.00001
3166.59,-0.00004
3155.02,-0.00015
3143.45,-0.00013
3131.88,0.00010
3120.31,0.00011
3108.74,0.00145
3097.17,0.00229
3085.6,0.00320
3074.03,0.00550
3062.46,0.00859
3050.88,0.00379
3039.31,0.00326
3027.74,0.00411
3016.17,0.00566
3004.6,0.00709
2993.03,0.00820
2981.46,0.00926
2969.89,0.00982
2958.32,0.00852
2946.75,0.00755
2935.17,0.00565
2923.6,0.00390
2912.03,0.00496
2900.46,0.00684
2888.89,0.00786
2877.32,0.00813
2865.75,0.00768
2854.18,0.00765
2842.61,0.01006
2831.04,0.01192
2819.46,0.01294
2807.89,0.01169
2796.32,0.00927
2784.75,0.00613
2773.18,0.00368
2761.61,0.00181
2750.04,0.00032
2738.47,-0.00006
2726.9,0.00012
2715.33,0.00036
2703.75,0.00045
2692.18,0.00340
2680.61,0.00866
2669.04,0.01276
2657.47,0.01303
2645.9,0.01097
2634.33,0.00861
2622.76,0.00687
2611.19,0.00602
2599.62,0.00586
2588.04,0.00629
2576.47,0.00827
2564.9,0.01454
2553.33,0.01957
2541.76,0.02071
2530.19,0.01871
2518.62,0.01532
2507.05,0.01190
2495.48,0.00892
2483.91,0.00674
2472.33,0.00503
2460.76,0.00394
2449.19,0.00301
2437.62,0.00225
2426.05,0.00179
2414.48,0.00157
2402.91,0.00154
2391.34,0.00152
2379.77,0.00141
2368.2,0.00025
2356.63,0.00005
2345.05,0.00037
2333.48,0.00011
2321.91,0.00061
2310.34,0.00102
2298.77,0.00130
2287.2,0.00134
2275.63,0.00073
2264.06,0.00033
2252.49,0.00005
2240.92,-0.00000
2229.34,0.00030
2217.77,0.00008
2206.2,0.00002
2194.63,0.00037
2183.06,0.00028
2171.49,0.00077
2159.92,0.00022
2148.35,0.00277
2136.78,0.00443
2125.21,0.00578
2113.63,0.00618
2102.06,0.00593
2090.49,0.00567
2078.92,0.00518
2067.35,0.00457
2055.78,0.00390
2044.21,0.00178
2032.64,0.00012
2021.07,0.00022
2009.5,0.00034
1997.92,0.00062
1986.35,0.00036
1974.78,0.00000
1963.21,0.00264
1951.64,0.00227
1940.07,0.00153
1928.5,0.00120
1916.93,0.00103
1905.36,0.00061
1893.79,0.00025
1882.21,0.00000
1870.64,-0.00003
1859.07,0.00006
1847.5,-0.00014
1835.93,0.00049
1824.36,0.00059
1812.79,0.00186
1801.22,0.00417
1789.65,0.00607
1778.08,0.00680
1766.5,0.00763
1754.93,0.01118
1743.36,0.02228
1731.79,0.05270
1720.22,0.10171
1708.65,0.11760
1697.08,0.16394
1685.51,0.22187
1673.94,0.20069
1662.37,0.09331
1650.79,0.05212
1639.22,0.03443
1627.65,0.02486
1616.08,0.02126
1604.51,0.01643
1592.94,0.00849
1581.37,0.01562
1569.8,0.02132
1558.23,0.00456
1546.66,0.00105
1535.08,0.00014
1523.51,0.00056
1511.94,0.02701
1500.37,0.00729
1488.8,0.00007
1477.23,0.00151
1465.66,0.00309
1454.09,0.00579
1442.52,0.01291
1430.95,0.04791
1419.37,0.06053
1407.8,0.05887
1396.23,0.01855
1384.66,0.01370
1373.09,0.00573
1361.52,0.00057
1349.95,0.00421
1338.38,0.04629
1326.81,0.02855
1315.24,0.04173
1303.66,0.06134
1292.09,0.09572
1280.52,0.10785
1268.95,0.11215
1257.38,0.12927
1245.81,0.15397
1234.24,0.14079
1222.67,0.11673
1211.1,0.09656
1199.53,0.08128
1187.95,0.06167
1176.38,0.04304
1164.81,0.02063
1153.24,0.00752
1141.67,0.01731
1130.1,0.07805
1118.53,0.10524
1106.96,0.11612
1095.39,0.11619
1083.82,0.10391
1072.25,0.08609
1060.67,0.06478
1049.1,0.04710
1037.53,0.02973
1025.96,0.01576
1014.39,0.07480
1002.82,0.03957
991.248,0.02709
979.677,0.02191
968.106,0.03829
956.535,0.03948
944.964,0.04503
933.393,0.04318
921.822,0.03027
910.251,0.01805
898.68,0.01044
887.109,0.00677
875.538,0.02486
863.967,0.01044
852.396,0.01065
840.825,0.01461
829.254,0.00808
817.683,0.00469
806.112,0.00108
794.541,0.00562
782.97,0.02992
771.399,0.01659
759.828,0.01014
748.257,0.00412
736.686,0.01622
725.115,0.10762
713.544,0.08647
701.973,0.05959
690.402,0.04429
678.831,0.03330
667.26,0.02333
655.689,0.00820
649.904,0.00000