File: Exploratory-Data-Science/Model Testing of Backsheet Color and FTIR Data/FTIR/XENON1-FTIR/Arkema XENON 0HR PET 3.018-1.SPA.dpt
3999.71,0.00110
3988.13,0.00080
3976.56,0.00043
3964.99,0.00020
3953.42,0.00021
3941.85,-0.00005
3930.28,-0.00019
3918.71,-0.00003
3907.14,-0.00004
3895.57,-0.00006
3884,-0.00020
3872.42,-0.00019
3860.85,-0.00010
3849.28,-0.00006
3837.71,-0.00005
3826.14,-0.00027
3814.57,-0.00018
3803,-0.00009
3791.43,-0.00007
3779.86,-0.00014
3768.29,-0.00011
3756.72,-0.00004
3745.14,0.00002
3733.57,-0.00010
3722,-0.00023
3710.43,-0.00027
3698.86,0.00000
3687.29,0.00032
3675.72,-0.00007
3664.15,-0.00027
3652.58,-0.00013
3641.01,-0.00000
3629.43,0.00012
3617.86,0.00005
3606.29,-0.00016
3594.72,-0.00022
3583.15,-0.00003
3571.58,0.00002
3560.01,0.00014
3548.44,0.00037
3536.87,0.00021
3525.3,0.00009
3513.72,-0.00003
3502.15,-0.00015
3490.58,-0.00003
3479.01,-0.00004
3467.44,-0.00015
3455.87,0.00000
3444.3,0.00071
3432.73,0.00262
3421.16,0.00141
3409.59,0.00023
3398.01,-0.00019
3386.44,-0.00013
3374.87,0.00001
3363.3,-0.00024
3351.73,-0.00015
3340.16,0.00012
3328.59,0.00011
3317.02,-0.00023
3305.45,-0.00007
3293.88,0.00004
3282.3,-0.00000
3270.73,-0.00003
3259.16,-0.00010
3247.59,-0.00014
3236.02,-0.00008
3224.45,-0.00002
3212.88,-0.00014
3201.31,-0.00013
3189.74,-0.00010
3178.17,-0.00010
3166.59,-0.00002
3155.02,-0.00021
3143.45,-0.00021
3131.88,0.00003
3120.31,0.00000
3108.74,0.00036
3097.17,0.00037
3085.6,0.00053
3074.03,0.00083
3062.46,0.00114
3050.88,0.00159
3039.31,-0.00006
3027.74,0.00014
3016.17,0.00240
3004.6,0.00280
2993.03,0.00356
2981.46,0.00638
2969.89,0.01305
2958.32,0.01035
2946.75,0.00718
2935.17,0.00489
2923.6,0.00263
2912.03,0.00447
2900.46,0.00663
2888.89,0.00544
2877.32,0.00487
2865.75,0.00473
2854.18,0.00352
2842.61,0.00226
2831.04,0.00177
2819.46,0.00111
2807.89,0.00105
2796.32,0.00081
2784.75,0.00038
2773.18,0.00013
2761.61,0.00003
2750.04,0.00005
2738.47,0.00007
2726.9,-0.00012
2715.33,-0.00006
2703.75,0.00005
2692.18,-0.00008
2680.61,-0.00020
2669.04,-0.00012
2657.47,-0.00001
2645.9,0.00001
2634.33,0.00012
2622.76,-0.00003
2611.19,-0.00005
2599.62,0.00000
2588.04,0.00006
2576.47,-0.00008
2564.9,0.00000
2553.33,-0.00000
2541.76,0.00003
2530.19,0.00011
2518.62,0.00002
2507.05,-0.00002
2495.48,0.00000
2483.91,-0.00004
2472.33,-0.00009
2460.76,-0.00002
2449.19,-0.00002
2437.62,0.00007
2426.05,0.00021
2414.48,0.00057
2402.91,0.00104
2391.34,0.00150
2379.77,0.00150
2368.2,0.00063
2356.63,0.00030
2345.05,0.00055
2333.48,0.00068
2321.91,0.00077
2310.34,0.00089
2298.77,0.00127
2287.2,0.00166
2275.63,0.00118
2264.06,0.00085
2252.49,0.00038
2240.92,0.00011
2229.34,0.00018
2217.77,0.00012
2206.2,0.00021
2194.63,0.00017
2183.06,0.00004
2171.49,0.00056
2159.92,0.00001
2148.35,0.00314
2136.78,0.00480
2125.21,0.00645
2113.63,0.00726
2102.06,0.00694
2090.49,0.00652
2078.92,0.00578
2067.35,0.00460
2055.78,0.00375
2044.21,0.00142
2032.64,0.00001
2021.07,0.00000
2009.5,0.00045
1997.92,0.00124
1986.35,0.00146
1974.78,0.00107
1963.21,0.00437
1951.64,0.00376
1940.07,0.00221
1928.5,0.00125
1916.93,0.00069
1905.36,0.00034
1893.79,0.00010
1882.21,-0.00000
1870.64,-0.00003
1859.07,0.00000
1847.5,0.00034
1835.93,0.00100
1824.36,0.00117
1812.79,0.00083
1801.22,0.00036
1789.65,0.00003
1778.08,-0.00005
1766.5,0.00077
1754.93,0.00460
1743.36,0.03089
1731.79,0.10857
1720.22,0.19907
1708.65,0.24464
1697.08,0.13254
1685.51,0.07941
1673.94,0.05396
1662.37,0.03251
1650.79,0.02029
1639.22,0.01338
1627.65,0.00887
1616.08,0.00790
1604.51,0.00447
1592.94,0.00200
1581.37,0.00757
1569.8,0.00340
1558.23,0.00147
1546.66,0.00104
1535.08,0.00062
1523.51,0.00278
1511.94,0.00493
1500.37,0.01043
1488.8,0.00014
1477.23,0.00756
1465.66,0.00947
1454.09,0.01097
1442.52,0.00713
1430.95,0.00107
1419.37,0.00593
1407.8,0.05890
1396.23,0.01238
1384.66,0.01186
1373.09,0.00839
1361.52,0.00109
1349.95,0.00866
1338.38,0.08288
1326.81,0.00187
1315.24,0.00344
1303.66,0.01557
1292.09,0.04427
1280.52,0.07718
1268.95,0.12029
1257.38,0.15599
1245.81,0.19535
1234.24,0.19906
1222.67,0.16481
1211.1,0.11380
1199.53,0.06965
1187.95,0.03184
1176.38,0.01917
1164.81,0.00138
1153.24,0.00280
1141.67,0.02514
1130.1,0.09833
1118.53,0.14590
1106.96,0.15574
1095.39,0.18426
1083.82,0.16761
1072.25,0.12725
1060.67,0.09074
1049.1,0.07274
1037.53,0.05707
1025.96,0.04886
1014.39,0.12651
1002.82,0.06600
991.248,0.04601
979.677,0.03973
968.106,0.06356
956.535,0.04198
944.964,0.02909
933.393,0.02144
921.822,0.01575
910.251,0.01387
898.68,0.01954
887.109,0.01714
875.538,0.04904
863.967,0.03101
852.396,0.03564
840.825,0.03904
829.254,0.02397
817.683,0.01728
806.112,0.01577
794.541,0.02298
782.97,0.01450
771.399,0.00804
759.828,0.00319
748.257,0.00047
736.686,0.03843
725.115,0.20572
713.544,0.13033
701.973,0.06741
690.402,0.03321
678.831,0.02154
667.26,0.01099
655.689,0.00357
649.904,0.00000