File: Exploratory-Data-Science/Model Testing of Backsheet Color and FTIR Data/FTIR/XENON1-FTIR/Arkema XENON 0HR PET 3.018-2.SPA.dpt
3999.71,0.00342
3988.13,0.00238
3976.56,0.00143
3964.99,0.00076
3953.42,0.00020
3941.85,-0.00019
3930.28,-0.00039
3918.71,-0.00030
3907.14,-0.00017
3895.57,-0.00016
3884,-0.00047
3872.42,-0.00059
3860.85,-0.00048
3849.28,-0.00021
3837.71,-0.00008
3826.14,-0.00056
3814.57,-0.00033
3803,-0.00003
3791.43,-0.00011
3779.86,-0.00047
3768.29,-0.00054
3756.72,-0.00040
3745.14,-0.00013
3733.57,0.00027
3722,-0.00044
3710.43,-0.00103
3698.86,-0.00042
3687.29,0.00033
3675.72,-0.00067
3664.15,-0.00129
3652.58,-0.00073
3641.01,-0.00012
3629.43,0.00042
3617.86,-0.00006
3606.29,-0.00051
3594.72,-0.00035
3583.15,-0.00012
3571.58,-0.00001
3560.01,0.00021
3548.44,0.00043
3536.87,0.00012
3525.3,-0.00026
3513.72,-0.00056
3502.15,-0.00054
3490.58,-0.00035
3479.01,-0.00009
3467.44,-0.00022
3455.87,0.00043
3444.3,0.00235
3432.73,0.00764
3421.16,0.00398
3409.59,0.00057
3398.01,-0.00052
3386.44,-0.00042
3374.87,0.00006
3363.3,-0.00048
3351.73,-0.00033
3340.16,0.00043
3328.59,0.00022
3317.02,-0.00041
3305.45,-0.00026
3293.88,-0.00009
3282.3,-0.00019
3270.73,-0.00010
3259.16,-0.00046
3247.59,-0.00046
3236.02,-0.00021
3224.45,-0.00007
3212.88,-0.00042
3201.31,-0.00054
3189.74,-0.00032
3178.17,-0.00026
3166.59,-0.00005
3155.02,-0.00065
3143.45,-0.00058
3131.88,0.00011
3120.31,0.00000
3108.74,0.00097
3097.17,0.00093
3085.6,0.00125
3074.03,0.00208
3062.46,0.00271
3050.88,0.00383
3039.31,-0.00028
3027.74,0.00012
3016.17,0.00542
3004.6,0.00532
2993.03,0.00658
2981.46,0.01370
2969.89,0.03092
2958.32,0.02208
2946.75,0.01143
2935.17,0.00532
2923.6,0.00291
2912.03,0.00826
2900.46,0.00921
2888.89,0.00580
2877.32,0.00442
2865.75,0.00483
2854.18,0.00459
2842.61,0.00126
2831.04,0.00064
2819.46,0.00072
2807.89,0.00107
2796.32,0.00069
2784.75,0.00004
2773.18,-0.00008
2761.61,0.00013
2750.04,0.00042
2738.47,0.00033
2726.9,-0.00013
2715.33,-0.00006
2703.75,0.00016
2692.18,-0.00006
2680.61,-0.00030
2669.04,-0.00015
2657.47,0.00001
2645.9,0.00012
2634.33,0.00043
2622.76,0.00002
2611.19,-0.00016
2599.62,-0.00005
2588.04,0.00008
2576.47,-0.00012
2564.9,-0.00009
2553.33,-0.00000
2541.76,0.00020
2530.19,0.00028
2518.62,-0.00011
2507.05,-0.00007
2495.48,0.00004
2483.91,-0.00020
2472.33,-0.00018
2460.76,-0.00011
2449.19,-0.00003
2437.62,0.00002
2426.05,0.00001
2414.48,0.00019
2402.91,0.00055
2391.34,0.00083
2379.77,0.00382
2368.2,0.01923
2356.63,0.02006
2345.05,0.01211
2333.48,0.01461
2321.91,0.00943
2310.34,0.00227
2298.77,0.00033
2287.2,0.00064
2275.63,0.00030
2264.06,0.00035
2252.49,0.00004
2240.92,-0.00003
2229.34,0.00006
2217.77,0.00002
2206.2,0.00012
2194.63,-0.00015
2183.06,-0.00022
2171.49,0.00055
2159.92,0.00000
2148.35,0.00428
2136.78,0.00693
2125.21,0.00960
2113.63,0.01095
2102.06,0.01043
2090.49,0.00962
2078.92,0.00817
2067.35,0.00631
2055.78,0.00473
2044.21,0.00135
2032.64,0.00000
2021.07,0.00000
2009.5,0.00032
1997.92,0.00135
1986.35,0.00196
1974.78,0.00187
1963.21,0.00874
1951.64,0.00692
1940.07,0.00330
1928.5,0.00123
1916.93,0.00037
1905.36,-0.00010
1893.79,-0.00031
1882.21,-0.00050
1870.64,-0.00035
1859.07,-0.00010
1847.5,0.00061
1835.93,0.00210
1824.36,0.00257
1812.79,0.00184
1801.22,0.00087
1789.65,0.00017
1778.08,-0.00004
1766.5,0.00203
1754.93,0.01188
1743.36,0.07990
1731.79,0.29674
1720.22,0.62381
1708.65,0.68047
1697.08,0.28065
1685.51,0.15711
1673.94,0.09889
1662.37,0.05286
1650.79,0.02913
1639.22,0.01710
1627.65,0.00997
1616.08,0.01062
1604.51,0.00469
1592.94,0.00094
1581.37,0.01490
1569.8,0.00480
1558.23,0.00069
1546.66,0.00052
1535.08,0.00070
1523.51,0.00487
1511.94,0.01066
1500.37,0.02186
1488.8,0.00039
1477.23,0.01799
1465.66,0.02240
1454.09,0.02573
1442.52,0.01650
1430.95,0.00233
1419.37,0.01435
1407.8,0.14079
1396.23,0.02734
1384.66,0.02597
1373.09,0.01903
1361.52,0.00230
1349.95,0.02085
1338.38,0.19484
1326.81,0.00375
1315.24,0.00968
1303.66,0.03982
1292.09,0.11175
1280.52,0.20042
1268.95,0.33029
1257.38,0.45781
1245.81,0.57382
1234.24,0.48137
1222.67,0.34497
1211.1,0.20462
1199.53,0.10891
1187.95,0.04360
1176.38,0.03088
1164.81,0.00100
1153.24,0.00868
1141.67,0.06343
1130.1,0.25229
1118.53,0.37533
1106.96,0.39988
1095.39,0.47261
1083.82,0.36138
1072.25,0.21955
1060.67,0.13565
1049.1,0.11076
1037.53,0.08573
1025.96,0.09580
1014.39,0.23274
1002.82,0.08116
991.248,0.05077
979.677,0.04730
968.106,0.09107
956.535,0.04119
944.964,0.01940
933.393,0.00837
921.822,0.00118
910.251,0.00204
898.68,0.01588
887.109,0.01413
875.538,0.08886
863.967,0.04372
852.396,0.05409
840.825,0.05253
829.254,0.02430
817.683,0.01472
806.112,0.01496
794.541,0.03090
782.97,0.01456
771.399,0.00638
759.828,0.00193
748.257,0.00017
736.686,0.07007
725.115,0.45760
713.544,0.27812
701.973,0.12541
690.402,0.05681
678.831,0.03706
667.26,0.02159
655.689,0.00602
649.904,0.00000