File: Exploratory-Data-Science/Model Testing of Backsheet Color and FTIR Data/FTIR/XENON1-FTIR/Arkema XENON 2000HR PET 3.017-1.SPA.dpt
3999.71,0.00124
3988.13,0.00080
3976.56,0.00048
3964.99,0.00025
3953.42,0.00000
3941.85,0.00000
3930.28,-0.00013
3918.71,-0.00006
3907.14,-0.00001
3895.57,0.00003
3884,-0.00021
3872.42,-0.00016
3860.85,-0.00011
3849.28,0.00000
3837.71,-0.00000
3826.14,-0.00014
3814.57,-0.00013
3803,-0.00007
3791.43,0.00001
3779.86,-0.00014
3768.29,-0.00000
3756.72,-0.00010
3745.14,-0.00007
3733.57,-0.00002
3722,-0.00026
3710.43,-0.00018
3698.86,-0.00018
3687.29,-0.00008
3675.72,-0.00023
3664.15,-0.00032
3652.58,-0.00027
3641.01,0.00000
3629.43,-0.00013
3617.86,0.00003
3606.29,-0.00005
3594.72,-0.00017
3583.15,-0.00008
3571.58,-0.00007
3560.01,-0.00022
3548.44,-0.00012
3536.87,-0.00009
3525.3,-0.00012
3513.72,-0.00005
3502.15,0.00001
3490.58,0.00010
3479.01,0.00005
3467.44,-0.00008
3455.87,-0.00013
3444.3,-0.00026
3432.73,0.00002
3421.16,-0.00019
3409.59,-0.00024
3398.01,-0.00014
3386.44,-0.00005
3374.87,-0.00002
3363.3,-0.00030
3351.73,-0.00040
3340.16,-0.00027
3328.59,-0.00004
3317.02,0.00007
3305.45,-0.00005
3293.88,-0.00010
3282.3,-0.00007
3270.73,-0.00008
3259.16,-0.00009
3247.59,-0.00022
3236.02,-0.00012
3224.45,0.00000
3212.88,-0.00008
3201.31,-0.00012
3189.74,-0.00008
3178.17,-0.00006
3166.59,0.00004
3155.02,-0.00019
3143.45,-0.00025
3131.88,-0.00012
3120.31,-0.00003
3108.74,0.00113
3097.17,0.00177
3085.6,0.00222
3074.03,0.00408
3062.46,0.00676
3050.88,0.00228
3039.31,0.00159
3027.74,0.00227
3016.17,0.00357
3004.6,0.00493
2993.03,0.00592
2981.46,0.00680
2969.89,0.00750
2958.32,0.00665
2946.75,0.00578
2935.17,0.00437
2923.6,0.00314
2912.03,0.00377
2900.46,0.00520
2888.89,0.00593
2877.32,0.00625
2865.75,0.00584
2854.18,0.00628
2842.61,0.00805
2831.04,0.00973
2819.46,0.01077
2807.89,0.00986
2796.32,0.00777
2784.75,0.00499
2773.18,0.00282
2761.61,0.00126
2750.04,-0.00011
2738.47,-0.00031
2726.9,-0.00015
2715.33,0.00003
2703.75,0.00019
2692.18,0.00284
2680.61,0.00766
2669.04,0.01158
2657.47,0.01196
2645.9,0.01005
2634.33,0.00796
2622.76,0.00638
2611.19,0.00547
2599.62,0.00544
2588.04,0.00594
2576.47,0.00776
2564.9,0.01347
2553.33,0.01848
2541.76,0.01973
2530.19,0.01799
2518.62,0.01482
2507.05,0.01162
2495.48,0.00881
2483.91,0.00656
2472.33,0.00497
2460.76,0.00402
2449.19,0.00309
2437.62,0.00232
2426.05,0.00195
2414.48,0.00189
2402.91,0.00206
2391.34,0.00222
2379.77,0.00208
2368.2,0.00032
2356.63,0.00011
2345.05,0.00060
2333.48,0.00008
2321.91,0.00064
2310.34,0.00129
2298.77,0.00165
2287.2,0.00160
2275.63,0.00101
2264.06,0.00050
2252.49,0.00004
2240.92,0.00005
2229.34,0.00024
2217.77,0.00018
2206.2,0.00001
2194.63,0.00030
2183.06,0.00009
2171.49,0.00093
2159.92,0.00000
2148.35,0.00265
2136.78,0.00419
2125.21,0.00586
2113.63,0.00640
2102.06,0.00613
2090.49,0.00565
2078.92,0.00527
2067.35,0.00465
2055.78,0.00386
2044.21,0.00164
2032.64,0.00001
2021.07,0.00010
2009.5,0.00011
1997.92,0.00076
1986.35,0.00052
1974.78,-0.00012
1963.21,0.00292
1951.64,0.00244
1940.07,0.00155
1928.5,0.00137
1916.93,0.00105
1905.36,0.00059
1893.79,0.00015
1882.21,0.00007
1870.64,0.00003
1859.07,0.00015
1847.5,0.00000
1835.93,0.00045
1824.36,0.00035
1812.79,0.00150
1801.22,0.00380
1789.65,0.00587
1778.08,0.00687
1766.5,0.00785
1754.93,0.01143
1743.36,0.02257
1731.79,0.05222
1720.22,0.10042
1708.65,0.12049
1697.08,0.16077
1685.51,0.23164
1673.94,0.24222
1662.37,0.12447
1650.79,0.07152
1639.22,0.04854
1627.65,0.03563
1616.08,0.03008
1604.51,0.02376
1592.94,0.01285
1581.37,0.01903
1569.8,0.02519
1558.23,0.00586
1546.66,0.00154
1535.08,0.00027
1523.51,0.00051
1511.94,0.02734
1500.37,0.00848
1488.8,0.00006
1477.23,0.00192
1465.66,0.00373
1454.09,0.00658
1442.52,0.01378
1430.95,0.04904
1419.37,0.06156
1407.8,0.06333
1396.23,0.02010
1384.66,0.01471
1373.09,0.00643
1361.52,0.00068
1349.95,0.00405
1338.38,0.04627
1326.81,0.02918
1315.24,0.04267
1303.66,0.06325
1292.09,0.09631
1280.52,0.11287
1268.95,0.11778
1257.38,0.13480
1245.81,0.16274
1234.24,0.15236
1222.67,0.12606
1211.1,0.10286
1199.53,0.08368
1187.95,0.06189
1176.38,0.04421
1164.81,0.02137
1153.24,0.00593
1141.67,0.01388
1130.1,0.07481
1118.53,0.10366
1106.96,0.11921
1095.39,0.11932
1083.82,0.10275
1072.25,0.08489
1060.67,0.06522
1049.1,0.04865
1037.53,0.03227
1025.96,0.01791
1014.39,0.07886
1002.82,0.04150
991.248,0.02928
979.677,0.02444
968.106,0.04216
956.535,0.04374
944.964,0.05119
933.393,0.05011
921.822,0.03511
910.251,0.02076
898.68,0.01198
887.109,0.00801
875.538,0.02922
863.967,0.01193
852.396,0.01126
840.825,0.01355
829.254,0.00399
817.683,0.00025
806.112,0.00009
794.541,0.00736
782.97,0.03178
771.399,0.01526
759.828,0.00711
748.257,0.00183
736.686,0.03252
725.115,0.14071
713.544,0.08493
701.973,0.04716
690.402,0.03153
678.831,0.02361
667.26,0.01593
655.689,0.00568
649.904,0.00000