File: Exploratory-Data-Science/Model Testing of Backsheet Color and FTIR Data/FTIR/XENON1-FTIR/Arkema XENON 3800HR PET 3.024-2.SPA.dpt
3999.71,0.00097
3988.13,0.00062
3976.56,0.00038
3964.99,0.00026
3953.42,0.00004
3941.85,-0.00009
3930.28,-0.00018
3918.71,-0.00013
3907.14,-0.00017
3895.57,-0.00002
3884,-0.00010
3872.42,-0.00010
3860.85,-0.00013
3849.28,0.00000
3837.71,0.00013
3826.14,-0.00006
3814.57,-0.00006
3803,-0.00009
3791.43,-0.00011
3779.86,-0.00003
3768.29,-0.00024
3756.72,-0.00017
3745.14,-0.00003
3733.57,0.00014
3722,-0.00011
3710.43,-0.00007
3698.86,-0.00005
3687.29,-0.00012
3675.72,-0.00016
3664.15,-0.00048
3652.58,-0.00035
3641.01,-0.00005
3629.43,0.00028
3617.86,0.00006
3606.29,-0.00008
3594.72,0.00003
3583.15,-0.00002
3571.58,-0.00009
3560.01,-0.00004
3548.44,-0.00003
3536.87,0.00006
3525.3,0.00007
3513.72,0.00002
3502.15,-0.00003
3490.58,0.00008
3479.01,-0.00005
3467.44,0.00003
3455.87,-0.00006
3444.3,0.00003
3432.73,0.00014
3421.16,-0.00001
3409.59,-0.00007
3398.01,-0.00011
3386.44,-0.00013
3374.87,0.00000
3363.3,-0.00028
3351.73,-0.00032
3340.16,-0.00011
3328.59,-0.00002
3317.02,-0.00000
3305.45,-0.00007
3293.88,0.00004
3282.3,-0.00002
3270.73,-0.00009
3259.16,-0.00014
3247.59,-0.00014
3236.02,-0.00007
3224.45,-0.00003
3212.88,-0.00009
3201.31,-0.00012
3189.74,-0.00007
3178.17,0.00003
3166.59,-0.00002
3155.02,-0.00017
3143.45,-0.00006
3131.88,-0.00000
3120.31,0.00000
3108.74,0.00107
3097.17,0.00168
3085.6,0.00231
3074.03,0.00406
3062.46,0.00657
3050.88,0.00252
3039.31,0.00200
3027.74,0.00271
3016.17,0.00399
3004.6,0.00512
2993.03,0.00594
2981.46,0.00674
2969.89,0.00725
2958.32,0.00595
2946.75,0.00510
2935.17,0.00326
2923.6,0.00149
2912.03,0.00262
2900.46,0.00447
2888.89,0.00535
2877.32,0.00558
2865.75,0.00523
2854.18,0.00507
2842.61,0.00734
2831.04,0.00904
2819.46,0.01001
2807.89,0.00906
2796.32,0.00709
2784.75,0.00458
2773.18,0.00255
2761.61,0.00111
2750.04,-0.00006
2738.47,-0.00028
2726.9,-0.00011
2715.33,0.00009
2703.75,0.00019
2692.18,0.00260
2680.61,0.00690
2669.04,0.01025
2657.47,0.01037
2645.9,0.00854
2634.33,0.00647
2622.76,0.00494
2611.19,0.00413
2599.62,0.00393
2588.04,0.00418
2576.47,0.00582
2564.9,0.01095
2553.33,0.01527
2541.76,0.01613
2530.19,0.01440
2518.62,0.01155
2507.05,0.00862
2495.48,0.00603
2483.91,0.00420
2472.33,0.00268
2460.76,0.00178
2449.19,0.00101
2437.62,0.00042
2426.05,0.00015
2414.48,-0.00003
2402.91,0.00005
2391.34,0.00000
2379.77,0.00069
2368.2,0.00499
2356.63,0.00539
2345.05,0.00334
2333.48,0.00429
2321.91,0.00304
2310.34,0.00116
2298.77,0.00069
2287.2,0.00057
2275.63,0.00036
2264.06,0.00025
2252.49,-0.00000
2240.92,0.00003
2229.34,0.00006
2217.77,0.00004
2206.2,0.00011
2194.63,0.00016
2183.06,0.00028
2171.49,0.00066
2159.92,0.00001
2148.35,0.00283
2136.78,0.00454
2125.21,0.00588
2113.63,0.00610
2102.06,0.00578
2090.49,0.00548
2078.92,0.00498
2067.35,0.00440
2055.78,0.00375
2044.21,0.00146
2032.64,0.00002
2021.07,0.00009
2009.5,0.00014
1997.92,0.00058
1986.35,0.00033
1974.78,-0.00012
1963.21,0.00231
1951.64,0.00229
1940.07,0.00153
1928.5,0.00114
1916.93,0.00101
1905.36,0.00061
1893.79,0.00021
1882.21,0.00011
1870.64,0.00008
1859.07,0.00018
1847.5,-0.00000
1835.93,0.00055
1824.36,0.00060
1812.79,0.00169
1801.22,0.00369
1789.65,0.00534
1778.08,0.00601
1766.5,0.00679
1754.93,0.01002
1743.36,0.02007
1731.79,0.04762
1720.22,0.09162
1708.65,0.10691
1697.08,0.14849
1685.51,0.19989
1673.94,0.18154
1662.37,0.08520
1650.79,0.04755
1639.22,0.03128
1627.65,0.02244
1616.08,0.01915
1604.51,0.01476
1592.94,0.00753
1581.37,0.01395
1569.8,0.01898
1558.23,0.00401
1546.66,0.00085
1535.08,0.00011
1523.51,0.00054
1511.94,0.02418
1500.37,0.00670
1488.8,0.00006
1477.23,0.00138
1465.66,0.00272
1454.09,0.00510
1442.52,0.01156
1430.95,0.04307
1419.37,0.05396
1407.8,0.05335
1396.23,0.01666
1384.66,0.01240
1373.09,0.00516
1361.52,0.00051
1349.95,0.00385
1338.38,0.04267
1326.81,0.02559
1315.24,0.03741
1303.66,0.05541
1292.09,0.08551
1280.52,0.09693
1268.95,0.10196
1257.38,0.11794
1245.81,0.14138
1234.24,0.12976
1222.67,0.10734
1211.1,0.08876
1199.53,0.07468
1187.95,0.05641
1176.38,0.03905
1164.81,0.01817
1153.24,0.00584
1141.67,0.01488
1130.1,0.07126
1118.53,0.09682
1106.96,0.10709
1095.39,0.10773
1083.82,0.09646
1072.25,0.07978
1060.67,0.05983
1049.1,0.04317
1037.53,0.02692
1025.96,0.01348
1014.39,0.06944
1002.82,0.03655
991.248,0.02476
979.677,0.01981
968.106,0.03526
956.535,0.03627
944.964,0.04112
933.393,0.03919
921.822,0.02719
910.251,0.01586
898.68,0.00877
887.109,0.00550
875.538,0.02230
863.967,0.00881
852.396,0.00911
840.825,0.01298
829.254,0.00673
817.683,0.00342
806.112,0.00001
794.541,0.00441
782.97,0.02699
771.399,0.01461
759.828,0.00877
748.257,0.00345
736.686,0.01696
725.115,0.10689
713.544,0.08285
701.973,0.05641
690.402,0.04186
678.831,0.03141
667.26,0.02302
655.689,0.00762
649.904,0.00000