File: Exploratory-Data-Science/Model Testing of Backsheet Color and FTIR Data/FTIR/XENON1-FTIR/Arkema XENON 0HR PET 3.011-2.SPA.dpt
3999.71,0.00236
3988.13,0.00169
3976.56,0.00091
3964.99,0.00056
3953.42,0.00017
3941.85,-0.00024
3930.28,-0.00035
3918.71,-0.00018
3907.14,-0.00017
3895.57,-0.00010
3884,-0.00035
3872.42,-0.00046
3860.85,-0.00032
3849.28,-0.00015
3837.71,-0.00007
3826.14,-0.00040
3814.57,-0.00018
3803,-0.00008
3791.43,-0.00007
3779.86,-0.00021
3768.29,-0.00016
3756.72,0.00001
3745.14,0.00023
3733.57,-0.00028
3722,-0.00064
3710.43,-0.00045
3698.86,-0.00022
3687.29,0.00048
3675.72,-0.00010
3664.15,-0.00050
3652.58,-0.00022
3641.01,-0.00014
3629.43,-0.00012
3617.86,-0.00020
3606.29,-0.00044
3594.72,-0.00038
3583.15,-0.00001
3571.58,0.00007
3560.01,0.00028
3548.44,0.00039
3536.87,0.00003
3525.3,-0.00016
3513.72,-0.00032
3502.15,-0.00028
3490.58,-0.00010
3479.01,0.00001
3467.44,-0.00018
3455.87,0.00020
3444.3,0.00118
3432.73,0.00424
3421.16,0.00234
3409.59,0.00038
3398.01,-0.00019
3386.44,-0.00015
3374.87,0.00014
3363.3,-0.00031
3351.73,-0.00017
3340.16,0.00028
3328.59,0.00022
3317.02,-0.00030
3305.45,-0.00020
3293.88,-0.00009
3282.3,-0.00006
3270.73,-0.00007
3259.16,-0.00028
3247.59,-0.00038
3236.02,-0.00017
3224.45,-0.00004
3212.88,-0.00031
3201.31,-0.00043
3189.74,-0.00028
3178.17,-0.00023
3166.59,-0.00004
3155.02,-0.00043
3143.45,-0.00039
3131.88,0.00001
3120.31,-0.00010
3108.74,0.00057
3097.17,0.00060
3085.6,0.00077
3074.03,0.00131
3062.46,0.00183
3050.88,0.00284
3039.31,0.00005
3027.74,0.00023
3016.17,0.00330
3004.6,0.00310
2993.03,0.00364
2981.46,0.00809
2969.89,0.01983
2958.32,0.01491
2946.75,0.00834
2935.17,0.00429
2923.6,0.00302
2912.03,0.00585
2900.46,0.00705
2888.89,0.00430
2877.32,0.00332
2865.75,0.00361
2854.18,0.00359
2842.61,0.00099
2831.04,0.00032
2819.46,0.00012
2807.89,0.00041
2796.32,0.00021
2784.75,-0.00019
2773.18,-0.00028
2761.61,-0.00011
2750.04,0.00010
2738.47,0.00002
2726.9,-0.00025
2715.33,-0.00019
2703.75,-0.00005
2692.18,-0.00023
2680.61,-0.00040
2669.04,-0.00026
2657.47,-0.00005
2645.9,0.00002
2634.33,0.00023
2622.76,-0.00001
2611.19,-0.00008
2599.62,0.00002
2588.04,0.00014
2576.47,-0.00005
2564.9,-0.00004
2553.33,-0.00005
2541.76,0.00005
2530.19,0.00014
2518.62,0.00001
2507.05,0.00007
2495.48,0.00010
2483.91,0.00000
2472.33,0.00000
2460.76,0.00036
2449.19,0.00093
2437.62,0.00209
2426.05,0.00375
2414.48,0.00567
2402.91,0.00773
2391.34,0.00971
2379.77,0.00978
2368.2,0.00190
2356.63,0.00069
2345.05,0.00356
2333.48,0.00134
2321.91,0.00306
2310.34,0.00568
2298.77,0.00694
2287.2,0.00727
2275.63,0.00598
2264.06,0.00496
2252.49,0.00379
2240.92,0.00254
2229.34,0.00208
2217.77,0.00151
2206.2,0.00118
2194.63,0.00033
2183.06,0.00000
2171.49,0.00079
2159.92,0.00000
2148.35,0.00451
2136.78,0.00708
2125.21,0.00941
2113.63,0.01045
2102.06,0.00990
2090.49,0.00925
2078.92,0.00796
2067.35,0.00617
2055.78,0.00494
2044.21,0.00160
2032.64,0.00000
2021.07,0.00000
2009.5,0.00033
1997.92,0.00138
1986.35,0.00151
1974.78,0.00119
1963.21,0.00629
1951.64,0.00547
1940.07,0.00288
1928.5,0.00137
1916.93,0.00057
1905.36,0.00010
1893.79,-0.00009
1882.21,-0.00022
1870.64,-0.00019
1859.07,-0.00008
1847.5,0.00049
1835.93,0.00172
1824.36,0.00194
1812.79,0.00131
1801.22,0.00061
1789.65,0.00008
1778.08,-0.00010
1766.5,0.00137
1754.93,0.00865
1743.36,0.05971
1731.79,0.22594
1720.22,0.44916
1708.65,0.49576
1697.08,0.21341
1685.51,0.12032
1673.94,0.07684
1662.37,0.04262
1650.79,0.02445
1639.22,0.01484
1627.65,0.00885
1616.08,0.00864
1604.51,0.00385
1592.94,0.00061
1581.37,0.01110
1569.8,0.00376
1558.23,0.00073
1546.66,0.00066
1535.08,0.00062
1523.51,0.00390
1511.94,0.00837
1500.37,0.01740
1488.8,0.00024
1477.23,0.01281
1465.66,0.01642
1454.09,0.01926
1442.52,0.01233
1430.95,0.00180
1419.37,0.01039
1407.8,0.10494
1396.23,0.02073
1384.66,0.02034
1373.09,0.01447
1361.52,0.00182
1349.95,0.01556
1338.38,0.15847
1326.81,0.00322
1315.24,0.00636
1303.66,0.02886
1292.09,0.08370
1280.52,0.14968
1268.95,0.24524
1257.38,0.33051
1245.81,0.42028
1234.24,0.39426
1222.67,0.30665
1211.1,0.19581
1199.53,0.11027
1187.95,0.04702
1176.38,0.02933
1164.81,0.00143
1153.24,0.00569
1141.67,0.04638
1130.1,0.19030
1118.53,0.29270
1106.96,0.31316
1095.39,0.37085
1083.82,0.30783
1072.25,0.20973
1060.67,0.13791
1049.1,0.10893
1037.53,0.08341
1025.96,0.07993
1014.39,0.21393
1002.82,0.09163
991.248,0.06005
979.677,0.05298
968.106,0.09359
956.535,0.05208
944.964,0.03133
933.393,0.01997
921.822,0.01217
910.251,0.01103
898.68,0.02150
887.109,0.01882
875.538,0.07755
863.967,0.04126
852.396,0.04992
840.825,0.05180
829.254,0.02749
817.683,0.01828
806.112,0.01733
794.541,0.02961
782.97,0.01585
771.399,0.00768
759.828,0.00238
748.257,0.00000
736.686,0.06124
725.115,0.39697
713.544,0.23516
701.973,0.10769
690.402,0.04968
678.831,0.03215
667.26,0.01454
655.689,0.00529
649.904,0.00000