File: Exploratory-Data-Science/Model Testing of Backsheet Color and FTIR Data/FTIR/XENON1-FTIR/Arkema XENON 2000HR PET 3.017-2.SPA.dpt
3999.71,0.00141
3988.13,0.00098
3976.56,0.00052
3964.99,0.00018
3953.42,0.00003
3941.85,-0.00012
3930.28,-0.00022
3918.71,-0.00011
3907.14,-0.00010
3895.57,-0.00008
3884,-0.00029
3872.42,-0.00027
3860.85,-0.00019
3849.28,-0.00002
3837.71,-0.00009
3826.14,-0.00014
3814.57,-0.00012
3803,-0.00003
3791.43,-0.00010
3779.86,-0.00027
3768.29,-0.00017
3756.72,-0.00010
3745.14,-0.00007
3733.57,0.00028
3722,-0.00001
3710.43,-0.00019
3698.86,0.00000
3687.29,-0.00014
3675.72,-0.00048
3664.15,-0.00058
3652.58,-0.00032
3641.01,0.00003
3629.43,0.00032
3617.86,0.00016
3606.29,0.00011
3594.72,0.00009
3583.15,-0.00007
3571.58,-0.00016
3560.01,-0.00023
3548.44,-0.00019
3536.87,-0.00007
3525.3,0.00001
3513.72,0.00007
3502.15,0.00010
3490.58,0.00025
3479.01,0.00013
3467.44,0.00017
3455.87,0.00011
3444.3,0.00010
3432.73,0.00049
3421.16,0.00030
3409.59,0.00003
3398.01,0.00010
3386.44,0.00022
3374.87,0.00037
3363.3,0.00000
3351.73,-0.00002
3340.16,0.00021
3328.59,0.00049
3317.02,0.00043
3305.45,0.00025
3293.88,0.00024
3282.3,0.00024
3270.73,0.00022
3259.16,0.00003
3247.59,-0.00013
3236.02,-0.00014
3224.45,0.00007
3212.88,-0.00008
3201.31,-0.00014
3189.74,-0.00007
3178.17,-0.00003
3166.59,-0.00006
3155.02,-0.00028
3143.45,-0.00027
3131.88,-0.00009
3120.31,-0.00003
3108.74,0.00195
3097.17,0.00304
3085.6,0.00386
3074.03,0.00657
3062.46,0.01025
3050.88,0.00415
3039.31,0.00335
3027.74,0.00443
3016.17,0.00651
3004.6,0.00839
2993.03,0.00981
2981.46,0.01120
2969.89,0.01224
2958.32,0.01103
2946.75,0.00972
2935.17,0.00780
2923.6,0.00632
2912.03,0.00709
2900.46,0.00883
2888.89,0.00979
2877.32,0.01007
2865.75,0.00957
2854.18,0.01014
2842.61,0.01235
2831.04,0.01437
2819.46,0.01563
2807.89,0.01404
2796.32,0.01093
2784.75,0.00699
2773.18,0.00388
2761.61,0.00165
2750.04,-0.00019
2738.47,-0.00042
2726.9,-0.00023
2715.33,0.00008
2703.75,0.00034
2692.18,0.00395
2680.61,0.01040
2669.04,0.01560
2657.47,0.01578
2645.9,0.01297
2634.33,0.00997
2622.76,0.00769
2611.19,0.00651
2599.62,0.00633
2588.04,0.00711
2576.47,0.00961
2564.9,0.01709
2553.33,0.02356
2541.76,0.02495
2530.19,0.02232
2518.62,0.01778
2507.05,0.01330
2495.48,0.00949
2483.91,0.00650
2472.33,0.00437
2460.76,0.00300
2449.19,0.00164
2437.62,0.00069
2426.05,0.00009
2414.48,0.00000
2402.91,0.00002
2391.34,0.00004
2379.77,0.00143
2368.2,0.01058
2356.63,0.01139
2345.05,0.00676
2333.48,0.00865
2321.91,0.00566
2310.34,0.00192
2298.77,0.00074
2287.2,0.00039
2275.63,0.00015
2264.06,0.00016
2252.49,0.00001
2240.92,0.00009
2229.34,0.00023
2217.77,0.00005
2206.2,-0.00001
2194.63,0.00034
2183.06,0.00004
2171.49,0.00087
2159.92,0.00000
2148.35,0.00282
2136.78,0.00460
2125.21,0.00638
2113.63,0.00678
2102.06,0.00652
2090.49,0.00615
2078.92,0.00564
2067.35,0.00479
2055.78,0.00420
2044.21,0.00158
2032.64,0.00000
2021.07,0.00002
2009.5,0.00005
1997.92,0.00055
1986.35,0.00032
1974.78,-0.00002
1963.21,0.00366
1951.64,0.00296
1940.07,0.00184
1928.5,0.00140
1916.93,0.00121
1905.36,0.00075
1893.79,0.00029
1882.21,0.00016
1870.64,0.00011
1859.07,0.00018
1847.5,0.00000
1835.93,0.00068
1824.36,0.00082
1812.79,0.00294
1801.22,0.00666
1789.65,0.01004
1778.08,0.01181
1766.5,0.01354
1754.93,0.01878
1743.36,0.03397
1731.79,0.07328
1720.22,0.14012
1708.65,0.16463
1697.08,0.21258
1685.51,0.30237
1673.94,0.30639
1662.37,0.15502
1650.79,0.08906
1639.22,0.06071
1627.65,0.04490
1616.08,0.03841
1604.51,0.03026
1592.94,0.01646
1581.37,0.02408
1569.8,0.03050
1558.23,0.00700
1546.66,0.00177
1535.08,0.00031
1523.51,0.00059
1511.94,0.03294
1500.37,0.01013
1488.8,0.00007
1477.23,0.00274
1465.66,0.00523
1454.09,0.00901
1442.52,0.01781
1430.95,0.05970
1419.37,0.07601
1407.8,0.07914
1396.23,0.02515
1384.66,0.01833
1373.09,0.00817
1361.52,0.00086
1349.95,0.00524
1338.38,0.05542
1326.81,0.03440
1315.24,0.05219
1303.66,0.07783
1292.09,0.12053
1280.52,0.14388
1268.95,0.15254
1257.38,0.17294
1245.81,0.20286
1234.24,0.18236
1222.67,0.14829
1211.1,0.11964
1199.53,0.09630
1187.95,0.07111
1176.38,0.05147
1164.81,0.02555
1153.24,0.00825
1141.67,0.01880
1130.1,0.09436
1118.53,0.12428
1106.96,0.14299
1095.39,0.13809
1083.82,0.11477
1072.25,0.09162
1060.67,0.06834
1049.1,0.05007
1037.53,0.03294
1025.96,0.02150
1014.39,0.08553
1002.82,0.04125
991.248,0.02895
979.677,0.02507
968.106,0.04572
956.535,0.04676
944.964,0.05522
933.393,0.05395
921.822,0.03717
910.251,0.02122
898.68,0.01171
887.109,0.00819
875.538,0.03382
863.967,0.01376
852.396,0.01352
840.825,0.01500
829.254,0.00397
817.683,0.00010
806.112,0.00026
794.541,0.00907
782.97,0.03514
771.399,0.01681
759.828,0.00777
748.257,0.00165
736.686,0.03922
725.115,0.16551
713.544,0.09749
701.973,0.05167
690.402,0.03386
678.831,0.02539
667.26,0.01904
655.689,0.00588
649.904,0.00000