File: Exploratory-Data-Science/Model Testing of Backsheet Color and FTIR Data/FTIR/XENON2-FTIR/UL XENON 2000HR PET 3.147-2.SPA.dpt
3999.71,0.00025
3988.13,0.00031
3976.56,0.00027
3964.99,0.00013
3953.42,0.00007
3941.85,-0.00006
3930.28,0.00004
3918.71,-0.00001
3907.14,0.00001
3895.57,0.00007
3884,-0.00002
3872.42,-0.00002
3860.85,0.00007
3849.28,0.00004
3837.71,0.00014
3826.14,-0.00000
3814.57,0.00005
3803,-0.00000
3791.43,-0.00003
3779.86,-0.00004
3768.29,-0.00014
3756.72,-0.00007
3745.14,0.00011
3733.57,0.00003
3722,-0.00001
3710.43,-0.00008
3698.86,0.00008
3687.29,0.00003
3675.72,-0.00001
3664.15,-0.00011
3652.58,0.00000
3641.01,0.00007
3629.43,0.00009
3617.86,0.00003
3606.29,0.00002
3594.72,0.00007
3583.15,0.00005
3571.58,0.00007
3560.01,0.00009
3548.44,0.00028
3536.87,0.00031
3525.3,0.00018
3513.72,0.00007
3502.15,0.00010
3490.58,0.00024
3479.01,0.00005
3467.44,0.00009
3455.87,-0.00002
3444.3,0.00000
3432.73,0.00023
3421.16,0.00025
3409.59,0.00027
3398.01,0.00017
3386.44,0.00008
3374.87,0.00009
3363.3,0.00003
3351.73,0.00015
3340.16,0.00035
3328.59,0.00064
3317.02,0.00115
3305.45,0.00160
3293.88,0.00184
3282.3,0.00175
3270.73,0.00141
3259.16,0.00105
3247.59,0.00066
3236.02,0.00036
3224.45,0.00033
3212.88,0.00027
3201.31,0.00021
3189.74,0.00011
3178.17,0.00005
3166.59,0.00001
3155.02,0.00000
3143.45,0.00002
3131.88,0.00009
3120.31,0.00010
3108.74,0.00025
3097.17,0.00037
3085.6,0.00050
3074.03,0.00047
3062.46,0.00032
3050.88,0.00026
3039.31,0.00003
3027.74,0.00004
3016.17,0.00015
3004.6,0.00007
2993.03,0.00003
2981.46,0.00031
2969.89,0.00190
2958.32,0.00309
2946.75,0.00338
2935.17,0.00531
2923.6,0.01012
2912.03,0.00904
2900.46,0.00524
2888.89,0.00335
2877.32,0.00256
2865.75,0.00280
2854.18,0.00590
2842.61,0.00399
2831.04,0.00138
2819.46,0.00065
2807.89,0.00038
2796.32,0.00019
2784.75,0.00011
2773.18,-0.00001
2761.61,0.00000
2750.04,0.00002
2738.47,0.00000
2726.9,-0.00000
2715.33,-0.00000
2703.75,0.00000
2692.18,-0.00002
2680.61,-0.00002
2669.04,-0.00000
2657.47,0.00002
2645.9,0.00002
2634.33,0.00005
2622.76,0.00005
2611.19,0.00004
2599.62,0.00001
2588.04,0.00002
2576.47,0.00002
2564.9,0.00002
2553.33,0.00018
2541.76,0.00006
2530.19,0.00014
2518.62,0.00015
2507.05,0.00020
2495.48,0.00005
2483.91,0.00002
2472.33,0.00009
2460.76,0.00007
2449.19,0.00006
2437.62,0.00010
2426.05,0.00010
2414.48,0.00018
2402.91,0.00038
2391.34,0.00053
2379.77,0.00034
2368.2,0.00019
2356.63,0.00009
2345.05,0.00023
2333.48,0.00002
2321.91,0.00023
2310.34,0.00025
2298.77,0.00026
2287.2,0.00023
2275.63,0.00012
2264.06,0.00018
2252.49,0.00004
2240.92,0.00021
2229.34,0.00019
2217.77,0.00000
2206.2,0.00009
2194.63,0.00019
2183.06,0.00036
2171.49,0.00015
2159.92,0.00065
2148.35,0.00081
2136.78,0.00087
2125.21,0.00076
2113.63,0.00072
2102.06,0.00063
2090.49,0.00057
2078.92,0.00048
2067.35,0.00032
2055.78,0.00030
2044.21,0.00021
2032.64,0.00009
2021.07,0.00048
2009.5,0.00074
1997.92,0.00064
1986.35,0.00098
1974.78,0.00147
1963.21,0.00185
1951.64,0.00143
1940.07,0.00129
1928.5,0.00100
1916.93,0.00065
1905.36,0.00055
1893.79,0.00035
1882.21,0.00021
1870.64,0.00010
1859.07,0.00008
1847.5,0.00007
1835.93,0.00005
1824.36,0.00002
1812.79,0.00002
1801.22,0.00004
1789.65,0.00003
1778.08,-0.00005
1766.5,-0.00011
1754.93,0.00049
1743.36,0.00481
1731.79,0.01867
1720.22,0.03778
1708.65,0.03513
1697.08,0.02364
1685.51,0.01710
1673.94,0.01276
1662.37,0.00985
1650.79,0.00887
1639.22,0.00954
1627.65,0.00747
1616.08,0.00580
1604.51,0.00415
1592.94,0.00264
1581.37,0.00283
1569.8,0.00304
1558.23,0.00273
1546.66,0.00229
1535.08,0.00161
1523.51,0.00090
1511.94,0.00058
1500.37,0.00172
1488.8,0.00001
1477.23,0.00071
1465.66,0.00258
1454.09,0.00223
1442.52,0.00179
1430.95,0.00128
1419.37,0.00196
1407.8,0.00857
1396.23,0.00278
1384.66,0.00256
1373.09,0.00201
1361.52,0.00036
1349.95,0.00120
1338.38,0.01159
1326.81,0.00044
1315.24,0.00012
1303.66,0.00168
1292.09,0.00576
1280.52,0.01367
1268.95,0.02426
1257.38,0.03032
1245.81,0.03361
1234.24,0.02542
1222.67,0.01841
1211.1,0.01389
1199.53,0.01042
1187.95,0.00711
1176.38,0.00500
1164.81,0.00237
1153.24,0.00097
1141.67,0.00340
1130.1,0.01868
1118.53,0.02303
1106.96,0.02462
1095.39,0.02418
1083.82,0.01898
1072.25,0.01378
1060.67,0.00998
1049.1,0.00754
1037.53,0.00538
1025.96,0.00547
1014.39,0.01187
1002.82,0.00525
991.248,0.00318
979.677,0.00248
968.106,0.00479
956.535,0.00304
944.964,0.00217
933.393,0.00156
921.822,0.00100
910.251,0.00071
898.68,0.00053
887.109,0.00000
875.538,0.00327
863.967,0.00159
852.396,0.00139
840.825,0.00194
829.254,0.00116
817.683,0.00060
806.112,0.00000
794.541,0.00082
782.97,0.00191
771.399,0.00310
759.828,0.00414
748.257,0.00470
736.686,0.00745
725.115,0.02963
713.544,0.02019
701.973,0.01471
690.402,0.01084
678.831,0.00796
667.26,0.00536
655.689,0.00185
649.904,0.00000